Model,TBS1102C
Firmware Version,v2015-08-04-prequal4ch70_v1.3

Point Format,Y
Horizontal Units,S
Horizontal Scale,2e-06
Sample Interval,1.6e-08
Filter Frequency,2e+08
Record Length,2000
Gating,0.0% to 100.0%
Probe Attenuation,1
Vertical Units,V
Vertical Offset,0
Vertical Scale,0.0083
Label,
TIME,CH1
2.835e-05,-0.0623615
2.837e-05,-0.062272
2.838e-05,-0.06225
2.840e-05,-0.0622993
2.842e-05,-0.0623408
2.843e-05,-0.0623732
2.845e-05,-0.0622707
2.846e-05,-0.0622059
2.848e-05,-0.0621709
2.850e-05,-0.0623019
2.851e-05,-0.0622746
2.853e-05,-0.0623071
2.854e-05,-0.0622682
2.856e-05,-0.0622383
2.858e-05,-0.06225
2.859e-05,-0.0622604
2.861e-05,-0.0622578
2.862e-05,-0.0622552
2.864e-05,-0.0622461
2.866e-05,-0.0622292
2.867e-05,-0.0623291
2.869e-05,-0.0622085
2.870e-05,-0.0621566
2.872e-05,-0.062215
2.874e-05,-0.062215
2.875e-05,-0.0622305
2.877e-05,-0.06225
2.878e-05,-0.0622396
2.880e-05,-0.0621501
2.882e-05,-0.062311
2.883e-05,-0.0622682
2.885e-05,-0.0622085
2.886e-05,-0.0620594
2.888e-05,-0.0621527
2.890e-05,-0.0621683
2.891e-05,-0.0623071
2.893e-05,-0.0621942
2.894e-05,-0.0621826
2.896e-05,-0.0621294
2.898e-05,-0.062202
2.899e-05,-0.0622539
2.901e-05,-0.0621696
2.902e-05,-0.0621138
2.904e-05,-0.0621372
2.906e-05,-0.0621229
2.907e-05,-0.0622331
2.909e-05,-0.062167
2.910e-05,-0.0621514
2.912e-05,-0.0622111
2.914e-05,-0.0620866
2.915e-05,-0.0621981
2.917e-05,-0.0620114
2.918e-05,-0.0620568
2.920e-05,-0.0621955
2.922e-05,-0.0622163
2.923e-05,-0.0621346
2.925e-05,-0.0621942
2.926e-05,-0.0621514
2.928e-05,-0.0621307
2.930e-05,-0.062132
2.931e-05,-0.0622176
2.933e-05,-0.0620983
2.934e-05,-0.0621437
2.936e-05,-0.0621047
2.938e-05,-0.0621968
2.939e-05,-0.0621942
2.941e-05,-0.0622487
2.942e-05,-0.062106
2.944e-05,-0.0620957
2.946e-05,-0.062062
2.947e-05,-0.0622202
2.949e-05,-0.0622798
2.950e-05,-0.0622228
2.952e-05,-0.0621073
2.954e-05,-0.0620464
2.955e-05,-0.0621527
2.957e-05,-0.0622578
2.958e-05,-0.0621877
2.960e-05,-0.0620996
2.962e-05,-0.0621138
2.963e-05,-0.0621696
2.965e-05,-0.0622072
2.966e-05,-0.062167
2.968e-05,-0.0621333
2.970e-05,-0.0621333
2.971e-05,-0.0622033
2.973e-05,-0.0622176
2.974e-05,-0.0620931
2.976e-05,-0.0621942
2.978e-05,-0.062333
2.979e-05,-0.0623161
2.981e-05,-0.0622759
2.982e-05,-0.062132
2.984e-05,-0.0622487
2.986e-05,-0.0622241
2.987e-05,-0.0622785
2.989e-05,-0.0621709
2.990e-05,-0.0621942
2.992e-05,-0.0622785
2.994e-05,-0.06232
2.995e-05,-0.0623745
2.997e-05,-0.0622643
2.998e-05,-0.0621929
3.000e-05,-0.0622357
3.002e-05,-0.0622189
3.003e-05,-0.0622254
3.005e-05,-0.0623252
3.006e-05,-0.0623589
3.008e-05,-0.0621644
3.010e-05,-0.0621761
3.011e-05,-0.0621294
3.013e-05,-0.0623058
3.014e-05,-0.0623589
3.016e-05,-0.0623097
3.018e-05,-0.0621398
3.019e-05,-0.0622254
3.021e-05,-0.062346
3.022e-05,-0.0624497
3.024e-05,-0.0622707
3.026e-05,-0.0621839
3.027e-05,-0.062263
3.029e-05,-0.0623719
3.030e-05,-0.0623239
3.032e-05,-0.0623187
3.034e-05,-0.0622215
3.035e-05,-0.0622928
3.037e-05,-0.0623278
3.038e-05,-0.0624108
3.040e-05,-0.0622643
3.042e-05,-0.0623486
3.043e-05,-0.0624108
3.045e-05,-0.0623304
3.046e-05,-0.0623732
3.048e-05,-0.0621955
3.050e-05,-0.0623097
3.051e-05,-0.0623045
3.053e-05,-0.062403
3.054e-05,-0.0623641
3.056e-05,-0.0622915
3.058e-05,-0.0623226
3.059e-05,-0.0622591
3.061e-05,-0.062298
3.062e-05,-0.0624277
3.064e-05,-0.0623304
3.066e-05,-0.0623525
3.067e-05,-0.0623213
3.069e-05,-0.0623304
3.070e-05,-0.0623745
3.072e-05,-0.0624692
3.074e-05,-0.0623058
3.075e-05,-0.0624886
3.077e-05,-0.0622228
3.078e-05,-0.062381
3.080e-05,-0.0623537
3.082e-05,-0.0623927
3.083e-05,-0.0623849
3.085e-05,-0.062355
3.086e-05,-0.0624095
3.088e-05,-0.0624277
3.090e-05,-0.0624653
3.091e-05,-0.0624873
3.093e-05,-0.0622422
3.094e-05,-0.0625638
3.096e-05,-0.0623304
3.098e-05,-0.0624095
3.099e-05,-0.0623058
3.101e-05,-0.0624212
3.102e-05,-0.0623914
3.104e-05,-0.0623576
3.106e-05,-0.0622967
3.107e-05,-0.0623317
3.109e-05,-0.0623991
3.110e-05,-0.0625327
3.112e-05,-0.0624808
3.114e-05,-0.0624082
3.115e-05,-0.0622954
3.117e-05,-0.0623019
3.118e-05,-0.0624458
3.120e-05,-0.0624964
3.122e-05,-0.0624017
3.123e-05,-0.0624186
3.125e-05,-0.0623032
3.126e-05,-0.0623862
3.128e-05,-0.0624173
3.130e-05,-0.0624744
3.131e-05,-0.0624575
3.133e-05,-0.062333
3.134e-05,-0.0623836
3.136e-05,-0.062228
3.138e-05,-0.0624264
3.139e-05,-0.0623641
3.141e-05,-0.0624886
3.142e-05,-0.0623823
3.144e-05,-0.0624108
3.146e-05,-0.0623019
3.147e-05,-0.0623641
3.149e-05,-0.062368
3.150e-05,-0.0624393
3.152e-05,-0.0625016
3.154e-05,-0.0623991
3.155e-05,-0.0623304
3.157e-05,-0.0623758
3.158e-05,-0.0622604
3.160e-05,-0.0623045
3.162e-05,-0.062263
3.163e-05,-0.0623278
3.165e-05,-0.0624251
3.166e-05,-0.062438
3.168e-05,-0.0623045
3.170e-05,-0.0622344
3.171e-05,-0.0622124
3.173e-05,-0.0623628
3.174e-05,-0.0623978
3.176e-05,-0.0623823
3.178e-05,-0.0623525
3.179e-05,-0.0622137
3.181e-05,-0.0622059
3.182e-05,-0.062368
3.184e-05,-0.0622267
3.186e-05,-0.0622604
3.187e-05,-0.0621657
3.189e-05,-0.0621735
3.190e-05,-0.0623343
3.192e-05,-0.0622824
3.194e-05,-0.0622591
3.195e-05,-0.0621514
3.197e-05,-0.0621618
3.198e-05,-0.0621916
3.200e-05,-0.0624108
3.202e-05,-0.062228
3.203e-05,-0.062189
3.205e-05,-0.0621138
3.206e-05,-0.0622189
3.208e-05,-0.0622448
3.210e-05,-0.0623239
3.211e-05,-0.0621462
3.213e-05,-0.0621086
3.214e-05,-0.0620529
3.216e-05,-0.062154
3.218e-05,-0.0622098
3.219e-05,-0.0622422
3.221e-05,-0.0622656
3.222e-05,-0.0621475
3.224e-05,-0.0620931
3.226e-05,-0.0621203
3.227e-05,-0.0622033
3.229e-05,-0.0622124
3.230e-05,-0.0622435
3.232e-05,-0.0620736
3.234e-05,-0.0621618
3.235e-05,-0.0621981
3.237e-05,-0.0622305
3.238e-05,-0.062237
3.240e-05,-0.0621346
3.242e-05,-0.0621411
3.243e-05,-0.0621929
3.245e-05,-0.0621268
3.246e-05,-0.0623499
3.248e-05,-0.0621553
3.250e-05,-0.0622176
3.251e-05,-0.0621164
3.253e-05,-0.0622059
3.254e-05,-0.062237
3.256e-05,-0.0622682
3.258e-05,-0.0622604
3.259e-05,-0.0622422
3.261e-05,-0.0622863
3.262e-05,-0.0621852
3.264e-05,-0.0620632
3.266e-05,-0.0622046
3.267e-05,-0.0622643
3.269e-05,-0.0622928
3.270e-05,-0.0622202
3.272e-05,-0.0622513
3.274e-05,-0.0622409
3.275e-05,-0.0622656
3.277e-05,-0.0623875
3.278e-05,-0.0622902
3.280e-05,-0.0624069
3.282e-05,-0.0621916
3.283e-05,-0.0623058
3.285e-05,-0.0623602
3.286e-05,-0.062355
3.288e-05,-0.0623058
3.290e-05,-0.06225
3.291e-05,-0.0622202
3.293e-05,-0.0622565
3.294e-05,-0.0623343
3.296e-05,-0.0623836
3.298e-05,-0.0623563
3.299e-05,-0.062263
3.301e-05,-0.0621255
3.302e-05,-0.0621981
3.304e-05,-0.0622357
3.306e-05,-0.0624432
3.307e-05,-0.0623369
3.309e-05,-0.0623304
3.310e-05,-0.0622033
3.312e-05,-0.0623071
3.314e-05,-0.0623084
3.315e-05,-0.062346
3.317e-05,-0.0622876
3.318e-05,-0.0622202
3.320e-05,-0.0623343
3.322e-05,-0.062298
3.323e-05,-0.0623045
3.325e-05,-0.0622785
3.326e-05,-0.0622085
3.328e-05,-0.0624367
3.330e-05,-0.0623135
3.331e-05,-0.0622954
3.333e-05,-0.0622357
3.334e-05,-0.0623265
3.336e-05,-0.0623563
3.338e-05,-0.0622785
3.339e-05,-0.0622565
3.341e-05,-0.0623084
3.342e-05,-0.0622552
3.344e-05,-0.0622772
3.346e-05,-0.0622318
3.347e-05,-0.062215
3.349e-05,-0.0622189
3.350e-05,-0.0621877
3.352e-05,-0.0623382
3.354e-05,-0.0622617
3.355e-05,-0.0622811
3.357e-05,-0.0623122
3.358e-05,-0.0621839
3.360e-05,-0.0623278
3.362e-05,-0.0621462
3.363e-05,-0.0622383
3.365e-05,-0.0623097
3.366e-05,-0.06218
3.368e-05,-0.0622889
3.370e-05,-0.0622474
3.371e-05,-0.0621968
3.373e-05,-0.0622396
3.374e-05,-0.0622863
3.376e-05,-0.0622422
3.378e-05,-0.0621372
3.379e-05,-0.0621761
3.381e-05,-0.0622578
3.382e-05,-0.0622539
3.384e-05,-0.0622344
3.386e-05,-0.0622617
3.387e-05,-0.0621073
3.389e-05,-0.0621813
3.390e-05,-0.0622798
3.392e-05,-0.0623135
3.394e-05,-0.0622707
3.395e-05,-0.0620892
3.397e-05,-0.0621047
3.398e-05,-0.0621968
3.400e-05,-0.0622617
3.402e-05,-0.0622565
3.403e-05,-0.0621527
3.405e-05,-0.0621177
3.406e-05,-0.06218
3.408e-05,-0.0621865
3.410e-05,-0.0621333
3.411e-05,-0.0621994
3.413e-05,-0.0623148
3.414e-05,-0.0622733
3.416e-05,-0.0621903
3.418e-05,-0.0622889
3.419e-05,-0.0622007
3.421e-05,-0.0622474
3.422e-05,-0.0622928
3.424e-05,-0.0622811
3.426e-05,-0.0622591
3.427e-05,-0.0622267
3.429e-05,-0.0623343
3.430e-05,-0.0624406
3.432e-05,-0.0624303
3.434e-05,-0.0622954
3.435e-05,-0.0623784
3.437e-05,-0.0623291
3.438e-05,-0.0624782
3.440e-05,-0.0624251
3.442e-05,-0.0624004
3.443e-05,-0.0623862
3.445e-05,-0.0623706
3.446e-05,-0.0625081
3.448e-05,-0.0624367
3.450e-05,-0.0625742
3.451e-05,-0.062464
3.453e-05,-0.0622669
3.454e-05,-0.0625107
3.456e-05,-0.0624562
3.458e-05,-0.0625872
3.459e-05,-0.0625677
3.461e-05,-0.062451
3.462e-05,-0.062595
3.464e-05,-0.0624925
3.466e-05,-0.062582
3.467e-05,-0.0626105
3.469e-05,-0.0626053
3.470e-05,-0.0625366
3.472e-05,-0.0624873
3.474e-05,-0.0626248
3.475e-05,-0.0626261
3.477e-05,-0.0625833
3.478e-05,-0.0624951
3.480e-05,-0.0626157
3.482e-05,-0.0624938
3.483e-05,-0.0626118
3.485e-05,-0.0626728
3.486e-05,-0.062687
3.488e-05,-0.0627247
3.490e-05,-0.0624731
3.491e-05,-0.0625392
3.493e-05,-0.0626235
3.494e-05,-0.0626845
3.496e-05,-0.0627104
3.498e-05,-0.062547
3.499e-05,-0.0625314
3.501e-05,-0.062512
3.502e-05,-0.0627337
3.504e-05,-0.0626455
3.506e-05,-0.0626754
3.507e-05,-0.0626092
3.509e-05,-0.0625574
3.510e-05,-0.0625522
3.512e-05,-0.0625587
3.514e-05,-0.0626637
3.515e-05,-0.0626079
3.517e-05,-0.0625976
3.518e-05,-0.0624303
3.520e-05,-0.0624938
3.522e-05,-0.0625638
3.523e-05,-0.0626378
3.525e-05,-0.0625016
3.526e-05,-0.0624757
3.528e-05,-0.0624692
3.530e-05,-0.0624964
3.531e-05,-0.0626066
3.533e-05,-0.0625275
3.534e-05,-0.0624614
3.536e-05,-0.0624316
3.538e-05,-0.0624095
3.539e-05,-0.0625898
3.541e-05,-0.0623901
3.542e-05,-0.0624173
3.544e-05,-0.0623576
3.546e-05,-0.062438
3.547e-05,-0.0624497
3.549e-05,-0.0623914
3.550e-05,-0.0623122
3.552e-05,-0.062298
3.554e-05,-0.0624588
3.555e-05,-0.0624432
3.557e-05,-0.0623901
3.558e-05,-0.0622396
3.560e-05,-0.0623576
3.562e-05,-0.0623537
3.563e-05,-0.062381
3.565e-05,-0.0624212
3.566e-05,-0.0622578
3.568e-05,-0.062346
3.570e-05,-0.062285
3.571e-05,-0.0623563
3.573e-05,-0.0623512
3.574e-05,-0.0623784
3.576e-05,-0.0622448
3.578e-05,-0.0622578
3.579e-05,-0.0622448
3.581e-05,-0.0622733
3.582e-05,-0.0623343
3.584e-05,-0.0623213
3.586e-05,-0.0623862
3.587e-05,-0.0623628
3.589e-05,-0.0623291
3.590e-05,-0.0623849
3.592e-05,-0.0622941
3.594e-05,-0.0623045
3.595e-05,-0.0622539
3.597e-05,-0.0623408
3.598e-05,-0.0624251
3.600e-05,-0.062333
3.602e-05,-0.0623667
3.603e-05,-0.0621903
3.605e-05,-0.0624095
3.606e-05,-0.0624225
3.608e-05,-0.0624367
3.610e-05,-0.062403
3.611e-05,-0.0623836
3.613e-05,-0.0623434
3.614e-05,-0.0623693
3.616e-05,-0.0624497
3.618e-05,-0.0624731
3.619e-05,-0.0624679
3.621e-05,-0.0624588
3.622e-05,-0.0624316
3.624e-05,-0.0624497
3.626e-05,-0.0625275
3.627e-05,-0.0625729
3.629e-05,-0.0624238
3.630e-05,-0.0624782
3.632e-05,-0.062355
3.634e-05,-0.0625612
3.635e-05,-0.0624601
3.637e-05,-0.0625885
3.638e-05,-0.0625314
3.640e-05,-0.0624004
3.642e-05,-0.0625483
3.643e-05,-0.0625379
3.645e-05,-0.0626326
3.646e-05,-0.062604
3.648e-05,-0.0624212
3.650e-05,-0.0625677
3.651e-05,-0.0626066
3.653e-05,-0.0626832
3.654e-05,-0.0627947
3.656e-05,-0.0625742
3.658e-05,-0.0625561
3.659e-05,-0.0626442
3.661e-05,-0.0626974
3.662e-05,-0.0627636
3.664e-05,-0.0628401
3.666e-05,-0.0626559
3.667e-05,-0.0627195
3.669e-05,-0.0628245
3.670e-05,-0.062866
3.672e-05,-0.0627856
3.674e-05,-0.062748
3.675e-05,-0.0628245
3.677e-05,-0.0628051
3.678e-05,-0.0628945
3.680e-05,-0.0629425
3.682e-05,-0.0628349
3.683e-05,-0.0629114
3.685e-05,-0.062901
3.686e-05,-0.0629231
3.688e-05,-0.062936
3.690e-05,-0.0629438
3.691e-05,-0.0630268
3.693e-05,-0.0630126
3.694e-05,-0.0629827
3.696e-05,-0.0630592
3.698e-05,-0.0630865
3.699e-05,-0.0629568
3.701e-05,-0.0629996
3.702e-05,-0.0630722
3.704e-05,-0.0630878
3.706e-05,-0.0630904
3.707e-05,-0.0631202
3.709e-05,-0.063058
3.710e-05,-0.0631474
3.712e-05,-0.0630242
3.714e-05,-0.0631902
3.715e-05,-0.0631435
3.717e-05,-0.0632188
3.718e-05,-0.063163
3.720e-05,-0.0632084
3.722e-05,-0.0631643
3.723e-05,-0.0631617
3.725e-05,-0.0632486
3.726e-05,-0.0632343
3.728e-05,-0.0633368
3.730e-05,-0.0633977
3.731e-05,-0.0632278
3.733e-05,-0.0631812
3.734e-05,-0.0632745
3.736e-05,-0.0635067
3.738e-05,-0.0633575
3.739e-05,-0.0633614
3.741e-05,-0.0633005
3.742e-05,-0.0633173
3.744e-05,-0.0634003
3.746e-05,-0.0633757
3.747e-05,-0.0634496
3.749e-05,-0.0635585
3.750e-05,-0.063377
3.752e-05,-0.0633757
3.754e-05,-0.0634457
3.755e-05,-0.0635041
3.757e-05,-0.0635106
3.758e-05,-0.0634548
3.760e-05,-0.063473
3.762e-05,-0.0634742
3.763e-05,-0.0634781
3.765e-05,-0.0635002
3.766e-05,-0.0634911
3.768e-05,-0.0635624
3.770e-05,-0.0636221
3.771e-05,-0.0635041
3.773e-05,-0.0636467
3.774e-05,-0.0635015
3.776e-05,-0.0635897
3.778e-05,-0.0636247
3.779e-05,-0.0635962
3.781e-05,-0.0636026
3.782e-05,-0.0636701
3.784e-05,-0.0635222
3.786e-05,-0.0636779
3.787e-05,-0.0635936
3.789e-05,-0.0638555
3.790e-05,-0.0637362
3.792e-05,-0.0636467
3.794e-05,-0.0636286
3.795e-05,-0.0635754
3.797e-05,-0.0637933
3.798e-05,-0.0638114
3.800e-05,-0.0638011
3.802e-05,-0.0638218
3.803e-05,-0.0635676
3.805e-05,-0.0638867
3.806e-05,-0.0637777
3.808e-05,-0.0638802
3.810e-05,-0.063897
3.811e-05,-0.0638037
3.813e-05,-0.0640008
3.814e-05,-0.0637777
3.816e-05,-0.0639178
3.818e-05,-0.063945
3.819e-05,-0.0639748
3.821e-05,-0.0640293
3.822e-05,-0.0639333
3.824e-05,-0.0639606
3.826e-05,-0.0640125
3.827e-05,-0.0640358
3.829e-05,-0.0640073
3.830e-05,-0.064028
3.832e-05,-0.0640514
3.834e-05,-0.064111
3.835e-05,-0.0640708
3.837e-05,-0.0640293
3.838e-05,-0.0642161
3.840e-05,-0.0640993
3.842e-05,-0.0642057
3.843e-05,-0.0642161
3.845e-05,-0.0643198
3.846e-05,-0.0642731
3.848e-05,-0.0641629
3.850e-05,-0.06422
3.851e-05,-0.0642679
3.853e-05,-0.0642485
3.854e-05,-0.0644119
3.856e-05,-0.0642861
3.858e-05,-0.0644236
3.859e-05,-0.0643289
3.861e-05,-0.0644287
3.862e-05,-0.0643769
3.864e-05,-0.0645805
3.866e-05,-0.0645234
3.867e-05,-0.0645922
3.869e-05,-0.0645312
3.870e-05,-0.0644534
3.872e-05,-0.0646518
3.874e-05,-0.0646116
3.875e-05,-0.0646609
3.877e-05,-0.0646025
3.878e-05,-0.0645922
3.880e-05,-0.0647815
3.882e-05,-0.0647893
3.883e-05,-0.0647932
3.885e-05,-0.064775
3.886e-05,-0.0647361
3.888e-05,-0.064884
3.890e-05,-0.0648671
3.891e-05,-0.0650474
3.893e-05,-0.064906
3.894e-05,-0.0649449
3.896e-05,-0.0649747
3.898e-05,-0.0650487
3.899e-05,-0.0652211
3.901e-05,-0.0652549
3.902e-05,-0.0652367
3.904e-05,-0.065238
3.906e-05,-0.065133
3.907e-05,-0.0652782
3.909e-05,-0.0652341
3.910e-05,-0.0654351
3.912e-05,-0.0653599
3.914e-05,-0.0654001
3.915e-05,-0.0654546
3.917e-05,-0.065391
3.918e-05,-0.0655544
3.920e-05,-0.0655674
3.922e-05,-0.0656063
3.923e-05,-0.0656828
3.925e-05,-0.0656634
3.926e-05,-0.0656478
3.928e-05,-0.0656828
3.930e-05,-0.0658294
3.931e-05,-0.0658929
3.933e-05,-0.0659967
3.934e-05,-0.065998
3.936e-05,-0.0659111
3.938e-05,-0.0659007
3.939e-05,-0.0661523
3.941e-05,-0.0660589
3.942e-05,-0.0661769
3.944e-05,-0.0661873
3.946e-05,-0.0661225
3.947e-05,-0.0662898
3.949e-05,-0.0664091
3.950e-05,-0.0663157
3.952e-05,-0.0663209
3.954e-05,-0.0663066
3.955e-05,-0.066435
3.957e-05,-0.0665932
3.958e-05,-0.0665984
3.960e-05,-0.0666244
3.962e-05,-0.0665297
3.963e-05,-0.0666762
3.965e-05,-0.0667035
3.966e-05,-0.0667268
3.968e-05,-0.0669252
3.970e-05,-0.0669369
3.971e-05,-0.0667994
3.973e-05,-0.0668617
3.974e-05,-0.0669836
3.976e-05,-0.0671237
3.978e-05,-0.0670432
3.979e-05,-0.0670471
3.981e-05,-0.0671483
3.982e-05,-0.0671924
3.984e-05,-0.0672572
3.986e-05,-0.067361
3.987e-05,-0.0673999
3.989e-05,-0.0673428
3.990e-05,-0.0674142
3.992e-05,-0.067457
3.994e-05,-0.0675983
3.995e-05,-0.067667
3.997e-05,-0.0675607
3.998e-05,-0.0675049
4.000e-05,-0.0676735
4.002e-05,-0.0678577
4.003e-05,-0.0678616
4.005e-05,-0.0678758
4.006e-05,-0.0677565
4.008e-05,-0.0678382
4.010e-05,-0.0680535
4.011e-05,-0.0680392
4.013e-05,-0.06813
4.014e-05,-0.0680146
4.016e-05,-0.0681391
4.018e-05,-0.0683051
4.019e-05,-0.0683246
4.021e-05,-0.068379
4.022e-05,-0.0682325
4.024e-05,-0.0683985
4.026e-05,-0.068405
4.027e-05,-0.0685515
4.029e-05,-0.0685567
4.030e-05,-0.0686125
4.032e-05,-0.0685878
4.034e-05,-0.0686812
4.035e-05,-0.0687668
4.037e-05,-0.068925
4.038e-05,-0.0690171
4.040e-05,-0.0689043
4.042e-05,-0.0688848
4.043e-05,-0.0689963
4.045e-05,-0.0690975
4.046e-05,-0.069353
4.048e-05,-0.0691896
4.050e-05,-0.0693063
4.051e-05,-0.0692609
4.053e-05,-0.0693361
4.054e-05,-0.0695268
4.056e-05,-0.0694606
4.058e-05,-0.0695631
4.059e-05,-0.0695722
4.061e-05,-0.0697018
4.062e-05,-0.0698704
4.064e-05,-0.0697446
4.066e-05,-0.0697252
4.067e-05,-0.0698549
4.069e-05,-0.0698652
4.070e-05,-0.0700948
4.072e-05,-0.0701869
4.074e-05,-0.0701921
4.075e-05,-0.0701882
4.077e-05,-0.0702595
4.078e-05,-0.0702828
4.080e-05,-0.0703477
4.082e-05,-0.0703127
4.083e-05,-0.070467
4.085e-05,-0.0705124
4.086e-05,-0.0706395
4.088e-05,-0.0705798
4.090e-05,-0.0706693
4.091e-05,-0.0707692
4.093e-05,-0.0708664
4.094e-05,-0.070987
4.096e-05,-0.0709002
4.098e-05,-0.0710208
4.099e-05,-0.071131
4.101e-05,-0.0711025
4.102e-05,-0.0711673
4.104e-05,-0.0713126
4.106e-05,-0.0713592
4.107e-05,-0.0712516
4.109e-05,-0.0712309
4.110e-05,-0.0714215
4.112e-05,-0.0715512
4.114e-05,-0.0715564
4.115e-05,-0.0716523
4.117e-05,-0.0714889
4.118e-05,-0.0716874
4.120e-05,-0.0717302
4.122e-05,-0.0719428
4.123e-05,-0.0719934
4.125e-05,-0.0718987
4.126e-05,-0.0718624
4.128e-05,-0.0719766
4.130e-05,-0.0720829
4.131e-05,-0.072197
4.133e-05,-0.0721062
4.134e-05,-0.0722165
4.136e-05,-0.0721737
4.138e-05,-0.0724019
4.139e-05,-0.0723916
4.141e-05,-0.072494
4.142e-05,-0.0723358
4.144e-05,-0.0724551
4.146e-05,-0.0725433
4.147e-05,-0.0727287
4.149e-05,-0.0726146
4.150e-05,-0.0725394
4.152e-05,-0.0726574
4.154e-05,-0.072743
4.155e-05,-0.0728857
4.157e-05,-0.0729453
4.158e-05,-0.0728377
4.160e-05,-0.0729375
4.162e-05,-0.0730154
4.163e-05,-0.0730802
4.165e-05,-0.0732086
4.166e-05,-0.0732099
4.168e-05,-0.0731671
4.170e-05,-0.073145
4.171e-05,-0.0732812
4.173e-05,-0.0734252
4.174e-05,-0.0734291
4.176e-05,-0.0734342
4.178e-05,-0.0734796
4.179e-05,-0.073468
4.181e-05,-0.0735977
4.182e-05,-0.0736573
4.184e-05,-0.0737948
4.186e-05,-0.0736651
4.187e-05,-0.0737533
4.189e-05,-0.0737533
4.190e-05,-0.0740088
4.192e-05,-0.0740036
4.194e-05,-0.0740321
4.195e-05,-0.0738726
4.197e-05,-0.0740373
4.198e-05,-0.0741462
4.200e-05,-0.0742396
4.202e-05,-0.0743524
4.203e-05,-0.0742785
4.205e-05,-0.0742292
4.206e-05,-0.0744082
4.208e-05,-0.0743356
4.210e-05,-0.0745353
4.211e-05,-0.0743732
4.213e-05,-0.074595
4.214e-05,-0.0745392
4.216e-05,-0.0745522
4.218e-05,-0.0747207
4.219e-05,-0.0747934
4.221e-05,-0.0748932
4.222e-05,-0.0748025
4.224e-05,-0.0747454
4.226e-05,-0.0749827
4.227e-05,-0.0749736
4.229e-05,-0.0750527
4.230e-05,-0.0750735
4.232e-05,-0.0750177
4.234e-05,-0.0751111
4.235e-05,-0.0751085
4.237e-05,-0.0752382
4.238e-05,-0.0752162
4.240e-05,-0.0751837
4.242e-05,-0.0753134
4.243e-05,-0.0754703
4.245e-05,-0.0754107
4.246e-05,-0.0756415
4.248e-05,-0.0753964
4.250e-05,-0.0756052
4.251e-05,-0.0754911
4.253e-05,-0.0756143
4.254e-05,-0.0757764
4.256e-05,-0.0757349
4.258e-05,-0.0756649
4.259e-05,-0.0757129
4.261e-05,-0.0757167
4.262e-05,-0.0759294
4.264e-05,-0.0759191
4.266e-05,-0.076015
4.267e-05,-0.0759255
4.269e-05,-0.0760565
4.270e-05,-0.0760812
4.272e-05,-0.076181
4.274e-05,-0.076124
4.275e-05,-0.0762511
4.277e-05,-0.0762031
4.278e-05,-0.0763133
4.280e-05,-0.0763587
4.282e-05,-0.0763405
4.283e-05,-0.0763535
4.285e-05,-0.0764547
4.286e-05,-0.0764326
4.288e-05,-0.0764728
4.290e-05,-0.0765325
4.291e-05,-0.0764741
4.293e-05,-0.0766129
4.294e-05,-0.0768009
4.296e-05,-0.0765571
4.298e-05,-0.0767374
4.299e-05,-0.0767685
4.301e-05,-0.0768398
4.302e-05,-0.0768813
4.304e-05,-0.0769047
4.306e-05,-0.076845
4.307e-05,-0.076871
4.309e-05,-0.0770123
4.310e-05,-0.0769656
4.312e-05,-0.0770733
4.314e-05,-0.0770409
4.315e-05,-0.0770435
4.317e-05,-0.0770551
4.318e-05,-0.0771083
4.320e-05,-0.0771822
4.322e-05,-0.0771226
4.323e-05,-0.0771965
4.325e-05,-0.0772458
4.326e-05,-0.077334
4.328e-05,-0.0772587
4.330e-05,-0.0771472
4.331e-05,-0.0773028
4.333e-05,-0.0772691
4.334e-05,-0.0774118
4.336e-05,-0.0774066
4.338e-05,-0.0773508
4.339e-05,-0.0772419
4.341e-05,-0.0773651
4.342e-05,-0.0773871
4.344e-05,-0.0775298
4.346e-05,-0.0774662
4.347e-05,-0.0774779
4.349e-05,-0.0775103
4.350e-05,-0.0775272
4.352e-05,-0.0774559
4.354e-05,-0.0774701
4.355e-05,-0.077391
4.357e-05,-0.0775894
4.358e-05,-0.0774805
4.360e-05,-0.0776283
4.362e-05,-0.0775038
4.363e-05,-0.0775025
4.365e-05,-0.0776491
4.366e-05,-0.0776193
4.368e-05,-0.0775038
4.370e-05,-0.0775051
4.371e-05,-0.0775194
4.373e-05,-0.07757
4.374e-05,-0.0776582
4.376e-05,-0.0774364
4.378e-05,-0.0775194
4.379e-05,-0.0775842
4.381e-05,-0.0775998
4.382e-05,-0.077653
4.384e-05,-0.0775337
4.386e-05,-0.0775687
4.387e-05,-0.0775181
4.389e-05,-0.0775713
4.390e-05,-0.0775363
4.392e-05,-0.0775453
4.394e-05,-0.077675
4.395e-05,-0.0774377
4.397e-05,-0.0775038
4.398e-05,-0.0774468
4.400e-05,-0.0774922
4.402e-05,-0.0776219
4.403e-05,-0.0774377
4.405e-05,-0.0774909
4.406e-05,-0.0773845
4.408e-05,-0.0773949
4.410e-05,-0.077378
4.411e-05,-0.0774195
4.413e-05,-0.0774182
4.414e-05,-0.0773171
4.416e-05,-0.0772185
4.418e-05,-0.0773365
4.419e-05,-0.0773249
4.421e-05,-0.0773599
4.422e-05,-0.0772899
4.424e-05,-0.0771731
4.426e-05,-0.0772159
4.427e-05,-0.0772146
4.429e-05,-0.0772704
4.430e-05,-0.0772341
4.432e-05,-0.0772484
4.434e-05,-0.0770862
4.435e-05,-0.0771031
4.437e-05,-0.0770525
4.438e-05,-0.0771472
4.440e-05,-0.077168
4.442e-05,-0.0772056
4.443e-05,-0.0770538
4.445e-05,-0.0769981
4.446e-05,-0.0769825
4.448e-05,-0.0769384
4.450e-05,-0.0771083
4.451e-05,-0.0770655
4.453e-05,-0.0768813
4.454e-05,-0.0769293
4.456e-05,-0.0768321
4.458e-05,-0.0769682
4.459e-05,-0.0768606
4.461e-05,-0.0768256
4.462e-05,-0.0768126
4.464e-05,-0.0768178
4.466e-05,-0.0769462
4.467e-05,-0.0768282
4.469e-05,-0.0768476
4.470e-05,-0.0767192
4.472e-05,-0.0766323
4.474e-05,-0.0768139
4.475e-05,-0.0766868
4.477e-05,-0.0767335
4.478e-05,-0.0767478
4.480e-05,-0.0765831
4.482e-05,-0.0766207
4.483e-05,-0.0766233
4.485e-05,-0.076644
4.486e-05,-0.0765753
4.488e-05,-0.0766142
4.490e-05,-0.0764988
4.491e-05,-0.0764287
4.493e-05,-0.0765247
4.494e-05,-0.0763613
4.496e-05,-0.0764002
4.498e-05,-0.0763457
4.499e-05,-0.0764015
4.501e-05,-0.0763457
4.502e-05,-0.0763224
4.504e-05,-0.0762031
4.506e-05,-0.0761629
4.507e-05,-0.0762225
4.509e-05,-0.0761875
4.510e-05,-0.0761136
4.512e-05,-0.0760902
4.514e-05,-0.0760047
4.515e-05,-0.0759956
4.517e-05,-0.0759541
4.518e-05,-0.0759398
4.520e-05,-0.0758815
4.522e-05,-0.0758451
4.523e-05,-0.0758049
4.525e-05,-0.0756584
4.526e-05,-0.0756999
4.528e-05,-0.0757245
4.530e-05,-0.0756
4.531e-05,-0.0754911
4.533e-05,-0.0754211
4.534e-05,-0.0754301
4.536e-05,-0.075351
4.538e-05,-0.0753601
4.539e-05,-0.0752771
4.541e-05,-0.0752628
4.542e-05,-0.0750644
4.544e-05,-0.07515
4.546e-05,-0.0750942
4.547e-05,-0.0749814
4.549e-05,-0.0749477
4.550e-05,-0.0748102
4.552e-05,-0.0748504
4.554e-05,-0.0748465
4.555e-05,-0.0746429
4.557e-05,-0.0746948
4.558e-05,-0.0744821
4.560e-05,-0.0744238
4.562e-05,-0.0743628
4.563e-05,-0.0744004
4.565e-05,-0.0744341
4.566e-05,-0.0741851
4.568e-05,-0.0741436
4.570e-05,-0.0740165
4.571e-05,-0.0740995
4.573e-05,-0.0741307
4.574e-05,-0.0739232
4.576e-05,-0.0738324
4.578e-05,-0.0736625
4.579e-05,-0.0736262
4.581e-05,-0.0737092
4.582e-05,-0.073586
4.584e-05,-0.0735095
4.586e-05,-0.0734576
4.587e-05,-0.0734628
4.589e-05,-0.0732812
4.590e-05,-0.0732721
4.592e-05,-0.073219
4.594e-05,-0.073228
4.595e-05,-0.0730426
4.597e-05,-0.0730828
4.598e-05,-0.0729272
4.600e-05,-0.0729557
4.602e-05,-0.0728999
4.603e-05,-0.0728351
4.605e-05,-0.0727858
4.606e-05,-0.0726068
4.608e-05,-0.0724875
4.610e-05,-0.0724084
4.611e-05,-0.0724668
4.613e-05,-0.0724305
4.614e-05,-0.0723254
4.616e-05,-0.0722813
4.618e-05,-0.0722087
4.619e-05,-0.0720998
4.621e-05,-0.0722061
4.622e-05,-0.0721387
4.624e-05,-0.0719856
4.626e-05,-0.0718585
4.627e-05,-0.0717146
4.629e-05,-0.0718209
4.630e-05,-0.0717989
4.632e-05,-0.0716381
4.634e-05,-0.0715927
4.635e-05,-0.0715382
4.637e-05,-0.0715655
4.638e-05,-0.071428
4.640e-05,-0.0713398
4.642e-05,-0.0712568
4.643e-05,-0.0711647
4.645e-05,-0.071192
4.646e-05,-0.0711414
4.648e-05,-0.0711349
4.650e-05,-0.0710272
4.651e-05,-0.0709144
4.653e-05,-0.0708392
4.654e-05,-0.0708029
4.656e-05,-0.0707718
4.658e-05,-0.0708431
4.659e-05,-0.0707614
4.661e-05,-0.0705137
4.662e-05,-0.0704333
4.664e-05,-0.0705474
4.666e-05,-0.0706071
4.667e-05,-0.0705267
4.669e-05,-0.0704073
4.670e-05,-0.0702945
4.672e-05,-0.070157
4.674e-05,-0.0702076
4.675e-05,-0.0701557
4.677e-05,-0.0701298
4.678e-05,-0.070039
4.680e-05,-0.0700222
4.682e-05,-0.0699936
4.683e-05,-0.0698691
4.685e-05,-0.069873
4.686e-05,-0.0697784
4.688e-05,-0.0697174
4.690e-05,-0.0695527
4.691e-05,-0.0695644
4.693e-05,-0.0695799
4.694e-05,-0.0696331
4.696e-05,-0.0694684
4.698e-05,-0.0692427
4.699e-05,-0.0692012
4.701e-05,-0.0692077
4.702e-05,-0.069327
4.704e-05,-0.069139
4.706e-05,-0.0691377
4.707e-05,-0.0689017
4.709e-05,-0.0688809
4.710e-05,-0.0690002
4.712e-05,-0.0688835
4.714e-05,-0.0688446
4.715e-05,-0.0687123
4.717e-05,-0.0685787
4.718e-05,-0.0685347
4.720e-05,-0.0685684
4.722e-05,-0.068571
4.723e-05,-0.0684711
4.725e-05,-0.068274
4.726e-05,-0.0681793
4.728e-05,-0.0682065
4.730e-05,-0.0682506
4.731e-05,-0.0681417
4.733e-05,-0.0681184
4.734e-05,-0.0680626
4.736e-05,-0.0679057
4.738e-05,-0.067798
4.739e-05,-0.067916
4.741e-05,-0.0678642
4.742e-05,-0.0677358
4.744e-05,-0.067632
4.746e-05,-0.0675568
4.747e-05,-0.067549
4.749e-05,-0.0675724
4.750e-05,-0.0674155
4.752e-05,-0.0674336
4.754e-05,-0.0674051
4.755e-05,-0.0673363
4.757e-05,-0.0672884
4.758e-05,-0.0672235
4.760e-05,-0.0671807
4.762e-05,-0.0670562
4.763e-05,-0.0670549
4.765e-05,-0.0669888
4.766e-05,-0.0669823
4.768e-05,-0.0669499
4.770e-05,-0.0668033
4.771e-05,-0.0667683
4.773e-05,-0.0668396
4.774e-05,-0.0667268
4.776e-05,-0.0667605
4.778e-05,-0.0665855
4.779e-05,-0.0666075
4.781e-05,-0.0664999
4.782e-05,-0.0664376
4.784e-05,-0.0663637
4.786e-05,-0.0664039
4.787e-05,-0.0663844
4.789e-05,-0.0663754
4.790e-05,-0.066269
4.792e-05,-0.0661601
4.794e-05,-0.0661562
4.795e-05,-0.0661406
4.797e-05,-0.0661497
4.798e-05,-0.0660083
4.800e-05,-0.0659007
4.802e-05,-0.0659655
4.803e-05,-0.065806
4.805e-05,-0.065867
4.806e-05,-0.0657606
4.808e-05,-0.0657762
4.810e-05,-0.0658099
4.811e-05,-0.0656478
4.813e-05,-0.0655622
4.814e-05,-0.0655492
4.816e-05,-0.0656193
4.818e-05,-0.0655376
4.819e-05,-0.0654792
4.821e-05,-0.0653807
4.822e-05,-0.0653392
4.824e-05,-0.0653041
4.826e-05,-0.0653093
4.827e-05,-0.0652665
4.829e-05,-0.0651757
4.830e-05,-0.0651304
4.832e-05,-0.0651783
4.834e-05,-0.0651796
4.835e-05,-0.0650876
4.837e-05,-0.0650046
4.838e-05,-0.0649773
4.840e-05,-0.0649021
4.842e-05,-0.0648671
4.843e-05,-0.0648775
4.845e-05,-0.0648749
4.846e-05,-0.0647413
4.848e-05,-0.0648697
4.850e-05,-0.0647102
4.851e-05,-0.064718
4.853e-05,-0.0646531
4.854e-05,-0.0645688
4.856e-05,-0.0646388
4.858e-05,-0.0645947
4.859e-05,-0.0646272
4.861e-05,-0.0644767
4.862e-05,-0.0644223
4.864e-05,-0.0644728
4.866e-05,-0.0644106
4.867e-05,-0.0644547
4.869e-05,-0.0643782
4.870e-05,-0.0644184
4.872e-05,-0.0644171
4.874e-05,-0.0642835
4.875e-05,-0.0643185
4.877e-05,-0.0643237
4.878e-05,-0.0641927
4.880e-05,-0.0642083
4.882e-05,-0.0642122
4.883e-05,-0.0641564
4.885e-05,-0.0641888
4.886e-05,-0.0641927
4.888e-05,-0.0641279
4.890e-05,-0.0640708
4.891e-05,-0.0640501
4.893e-05,-0.0640565
4.894e-05,-0.0640228
4.896e-05,-0.0640358
4.898e-05,-0.063862
4.899e-05,-0.0640384
4.901e-05,-0.06398
4.902e-05,-0.0638996
4.904e-05,-0.0638815
4.906e-05,-0.0638205
4.907e-05,-0.0637998
4.909e-05,-0.0638633
4.910e-05,-0.0638452
4.912e-05,-0.063766
4.914e-05,-0.0637972
4.915e-05,-0.0638387
4.917e-05,-0.063683
4.918e-05,-0.0636921
4.920e-05,-0.063683
4.922e-05,-0.0637557
4.923e-05,-0.0636895
4.925e-05,-0.0635741
4.926e-05,-0.0636571
4.928e-05,-0.0635585
4.930e-05,-0.063543
4.931e-05,-0.063517
4.933e-05,-0.0634859
4.934e-05,-0.0635469
4.936e-05,-0.0635028
4.938e-05,-0.0633446
4.939e-05,-0.063342
4.941e-05,-0.0634029
4.942e-05,-0.0633796
4.944e-05,-0.0634276
4.946e-05,-0.0633134
4.947e-05,-0.0634003
4.949e-05,-0.063198
4.950e-05,-0.0631591
4.952e-05,-0.063233
4.954e-05,-0.0632006
4.955e-05,-0.0632382
4.957e-05,-0.0632538
4.958e-05,-0.0631682
4.960e-05,-0.0630268
4.962e-05,-0.0630722
4.963e-05,-0.0631358
4.965e-05,-0.0630891
4.966e-05,-0.0629633
4.968e-05,-0.0629762
4.970e-05,-0.0630126
4.971e-05,-0.0630359
4.973e-05,-0.0629983
4.974e-05,-0.0628829
4.976e-05,-0.0629127
4.978e-05,-0.0629114
4.979e-05,-0.0629516
4.981e-05,-0.0629114
4.982e-05,-0.0627324
4.984e-05,-0.0629659
4.986e-05,-0.0629698
4.987e-05,-0.0628569
4.989e-05,-0.0627519
4.990e-05,-0.0626754
4.992e-05,-0.0628258
4.994e-05,-0.0627532
4.995e-05,-0.0628154
4.997e-05,-0.0627221
4.998e-05,-0.0626922
5.000e-05,-0.0626598
5.002e-05,-0.0626339
5.003e-05,-0.0626417
5.005e-05,-0.0626598
5.006e-05,-0.0625742
5.008e-05,-0.0625664
5.010e-05,-0.0626339
5.011e-05,-0.0626196
5.013e-05,-0.062582
5.014e-05,-0.0625314
5.016e-05,-0.0625405
5.018e-05,-0.0625444
5.019e-05,-0.0625133
5.021e-05,-0.0624964
5.022e-05,-0.0624731
5.024e-05,-0.0624782
5.026e-05,-0.062394
5.027e-05,-0.0624082
5.029e-05,-0.0624043
5.030e-05,-0.0624601
5.032e-05,-0.0624173
5.034e-05,-0.0624199
5.035e-05,-0.062368
5.037e-05,-0.0623771
5.038e-05,-0.0623434
5.040e-05,-0.0622954
5.042e-05,-0.0622798
5.043e-05,-0.0623667
5.045e-05,-0.0623187
5.046e-05,-0.0624017
5.048e-05,-0.0621852
5.050e-05,-0.0621359
5.051e-05,-0.0621826
5.053e-05,-0.0622526
5.054e-05,-0.0622669
5.056e-05,-0.0621942
5.058e-05,-0.0620879
5.059e-05,-0.0620645
5.061e-05,-0.062106
5.062e-05,-0.0621527
5.064e-05,-0.0621994
5.066e-05,-0.0619595
5.067e-05,-0.0619828
5.069e-05,-0.0619828
5.070e-05,-0.0622202
5.072e-05,-0.0620269
5.074e-05,-0.0620736
5.075e-05,-0.0619556
5.077e-05,-0.0619556
5.078e-05,-0.0619102
5.080e-05,-0.0620931
5.082e-05,-0.0619945
5.083e-05,-0.0620594
5.085e-05,-0.061979
5.086e-05,-0.0618985
5.088e-05,-0.0618687
5.090e-05,-0.0619323
5.091e-05,-0.0619958
5.093e-05,-0.0619751
5.094e-05,-0.0618739
5.096e-05,-0.0618155
5.098e-05,-0.0617922
5.099e-05,-0.0619634
5.101e-05,-0.0620088
5.102e-05,-0.0619712
5.104e-05,-0.0618272
5.106e-05,-0.061752
5.107e-05,-0.0618674
5.109e-05,-0.0619517
5.110e-05,-0.0620594
5.112e-05,-0.0618843
5.114e-05,-0.0618065
5.115e-05,-0.0618052
5.117e-05,-0.0618985
5.118e-05,-0.0620866
5.120e-05,-0.0619673
5.122e-05,-0.0619426
5.123e-05,-0.061848
5.125e-05,-0.0617766
5.126e-05,-0.0619673
5.128e-05,-0.0618506
5.130e-05,-0.0621177
5.131e-05,-0.0619413
5.133e-05,-0.0620607
5.134e-05,-0.0619569
5.136e-05,-0.0620347
5.138e-05,-0.062106
5.139e-05,-0.0620503
5.141e-05,-0.0619478
5.142e-05,-0.0620438
5.144e-05,-0.0619478
5.146e-05,-0.0621125
5.147e-05,-0.0621203
5.149e-05,-0.0621566
5.150e-05,-0.0621294
5.152e-05,-0.0621424
5.154e-05,-0.0620217
5.155e-05,-0.0621359
5.157e-05,-0.0621138
5.158e-05,-0.0623408
5.160e-05,-0.0622124
5.162e-05,-0.0621333
5.163e-05,-0.0621203
5.165e-05,-0.0621411
5.166e-05,-0.0621877
5.168e-05,-0.0623071
5.170e-05,-0.0622863
5.171e-05,-0.0622124
5.173e-05,-0.0622033
5.174e-05,-0.0622941
5.176e-05,-0.062272
5.178e-05,-0.0622526
5.179e-05,-0.0622824
5.181e-05,-0.0623239
5.182e-05,-0.0623797
5.184e-05,-0.0622344
5.186e-05,-0.062263
5.187e-05,-0.0621813
5.189e-05,-0.062311
5.190e-05,-0.0622085
5.192e-05,-0.0623991
5.194e-05,-0.0623032
5.195e-05,-0.0624043
5.197e-05,-0.0622682
5.198e-05,-0.0624562
5.200e-05,-0.0623187
5.202e-05,-0.0623602
5.203e-05,-0.0623148
5.205e-05,-0.0623071
5.206e-05,-0.0623097
5.208e-05,-0.0624004
5.210e-05,-0.0622565
5.211e-05,-0.0624393
5.213e-05,-0.0622318
5.214e-05,-0.0623732
5.216e-05,-0.0622591
5.218e-05,-0.062403
5.219e-05,-0.0623084
5.221e-05,-0.0623058
5.222e-05,-0.0623654
5.224e-05,-0.0623576
5.226e-05,-0.0622863
5.227e-05,-0.0623667
5.229e-05,-0.0622617
5.230e-05,-0.0622539
5.232e-05,-0.0622513
5.234e-05,-0.0621346
5.235e-05,-0.0622526
5.237e-05,-0.0623667
5.238e-05,-0.0622941
5.240e-05,-0.0621514
5.242e-05,-0.0621151
5.243e-05,-0.0622318
5.245e-05,-0.0622915
5.246e-05,-0.062311
5.248e-05,-0.0620697
5.250e-05,-0.0620334
5.251e-05,-0.0621488
5.253e-05,-0.0621981
5.254e-05,-0.0622772
5.256e-05,-0.0621761
5.258e-05,-0.0620944
5.259e-05,-0.0621359
5.261e-05,-0.0621644
5.262e-05,-0.062119
5.264e-05,-0.0621437
5.266e-05,-0.0621696
5.267e-05,-0.0621125
5.269e-05,-0.0620516
5.270e-05,-0.0620438
5.272e-05,-0.0620749
5.274e-05,-0.0621086
5.275e-05,-0.0620775
5.277e-05,-0.0620762
5.278e-05,-0.062014
5.280e-05,-0.0621631
5.282e-05,-0.0620334
5.283e-05,-0.0621722
5.285e-05,-0.0620866
5.286e-05,-0.0621398
5.288e-05,-0.0620166
5.290e-05,-0.0621398
5.291e-05,-0.0621372
5.293e-05,-0.0621903
5.294e-05,-0.0621475
5.296e-05,-0.0621903
5.298e-05,-0.0620697
5.299e-05,-0.0620529
5.301e-05,-0.0621268
5.302e-05,-0.0623213
5.304e-05,-0.0622682
5.306e-05,-0.0621385
5.307e-05,-0.0621553
5.309e-05,-0.0621865
5.310e-05,-0.0622111
5.312e-05,-0.0622033
5.314e-05,-0.0621631
5.315e-05,-0.0621735
5.317e-05,-0.062263
5.318e-05,-0.0623473
5.320e-05,-0.0622124
5.322e-05,-0.062132
5.323e-05,-0.0621255
5.325e-05,-0.0622837
5.326e-05,-0.0623045
5.328e-05,-0.0621437
5.330e-05,-0.0621307
5.331e-05,-0.0621813
5.333e-05,-0.0623602
5.334e-05,-0.0622941
5.336e-05,-0.0622435
5.338e-05,-0.0621255
5.339e-05,-0.0620412
5.341e-05,-0.062228
5.342e-05,-0.062285
5.344e-05,-0.0622863
5.346e-05,-0.0621722
5.347e-05,-0.0621488
5.349e-05,-0.0621164
5.350e-05,-0.0622344
5.352e-05,-0.0622617
5.354e-05,-0.062167
5.355e-05,-0.0621657
5.357e-05,-0.0621592
5.358e-05,-0.062062
5.360e-05,-0.0622098
5.362e-05,-0.0621877
5.363e-05,-0.0622487
5.365e-05,-0.0621229
5.366e-05,-0.0621631
5.368e-05,-0.0621826
5.370e-05,-0.0622072
5.371e-05,-0.0621839
5.373e-05,-0.0620658
5.374e-05,-0.0622318
5.376e-05,-0.0621307
5.378e-05,-0.062215
5.379e-05,-0.0621566
5.381e-05,-0.0622409
5.382e-05,-0.0621255
5.384e-05,-0.062167
5.386e-05,-0.0621826
5.387e-05,-0.0621424
5.389e-05,-0.0622785
5.390e-05,-0.0621125
5.392e-05,-0.0621047
5.394e-05,-0.0621981
5.395e-05,-0.0621761
5.397e-05,-0.0622526
5.398e-05,-0.0621346
5.400e-05,-0.0621501
5.402e-05,-0.0622331
5.403e-05,-0.0621826
5.405e-05,-0.0622228
5.406e-05,-0.0622383
5.408e-05,-0.0622876
5.410e-05,-0.0621994
5.411e-05,-0.0621865
5.413e-05,-0.0622137
5.414e-05,-0.0622111
5.416e-05,-0.0622889
5.418e-05,-0.0622824
5.419e-05,-0.0623006
5.421e-05,-0.062298
5.422e-05,-0.0623071
5.424e-05,-0.0623473
5.426e-05,-0.0623641
5.427e-05,-0.0623317
5.429e-05,-0.062381
5.430e-05,-0.062355
5.432e-05,-0.0624731
5.434e-05,-0.0624004
5.435e-05,-0.062464
5.437e-05,-0.0624251
5.438e-05,-0.0625249
5.440e-05,-0.0625457
5.442e-05,-0.0625522
5.443e-05,-0.0624277
5.445e-05,-0.0625379
5.446e-05,-0.0624718
5.448e-05,-0.0626378
5.450e-05,-0.0624899
5.451e-05,-0.0625677
5.453e-05,-0.0624964
5.454e-05,-0.0625768
5.456e-05,-0.0624653
5.458e-05,-0.0626118
5.459e-05,-0.0626002
5.461e-05,-0.0626092
5.462e-05,-0.0625223
5.464e-05,-0.0625314
5.466e-05,-0.0625483
5.467e-05,-0.062582
5.469e-05,-0.0626494
5.470e-05,-0.0626002
5.472e-05,-0.0625055
5.474e-05,-0.0625068
5.475e-05,-0.0625742
5.477e-05,-0.062665
5.478e-05,-0.0626131
5.480e-05,-0.0625561
5.482e-05,-0.0625185
5.483e-05,-0.0624653
5.485e-05,-0.0625664
5.486e-05,-0.0624536
5.488e-05,-0.0625561
5.490e-05,-0.0624679
5.491e-05,-0.0625042
5.493e-05,-0.0625055
5.494e-05,-0.0624095
5.496e-05,-0.0624679
5.498e-05,-0.062512
5.499e-05,-0.0623434
5.501e-05,-0.0625159
5.502e-05,-0.0623382
5.504e-05,-0.0624471
5.506e-05,-0.0623602
5.507e-05,-0.0623901
5.509e-05,-0.0623239
5.510e-05,-0.0623369
5.512e-05,-0.0624173
5.514e-05,-0.0624069
5.515e-05,-0.0621929
5.517e-05,-0.0622746
5.518e-05,-0.0622526
5.520e-05,-0.0622746
5.522e-05,-0.06232
5.523e-05,-0.0622396
5.525e-05,-0.0622383
5.526e-05,-0.0621735
5.528e-05,-0.0620879
5.530e-05,-0.0622137
5.531e-05,-0.0621346
5.533e-05,-0.0621981
5.534e-05,-0.0622137
5.536e-05,-0.0620684
5.538e-05,-0.0620775
5.539e-05,-0.0620853
5.541e-05,-0.0621281
5.542e-05,-0.0621579
5.544e-05,-0.0620205
5.546e-05,-0.0620931
5.547e-05,-0.0620062
5.549e-05,-0.062001
5.550e-05,-0.0620282
5.552e-05,-0.0619958
5.554e-05,-0.0620023
5.555e-05,-0.0619271
5.557e-05,-0.0619556
5.558e-05,-0.0620334
5.560e-05,-0.0619413
5.562e-05,-0.0619621
5.563e-05,-0.061966
5.565e-05,-0.0618454
5.566e-05,-0.0619971
5.568e-05,-0.0620529
5.570e-05,-0.0619751
5.571e-05,-0.061813
5.573e-05,-0.0619582
5.574e-05,-0.0618985
5.576e-05,-0.0619997
5.578e-05,-0.062014
5.579e-05,-0.0618622
5.581e-05,-0.0618791
5.582e-05,-0.061905
5.584e-05,-0.061918
5.586e-05,-0.0619517
5.587e-05,-0.0619115
5.589e-05,-0.0618648
5.590e-05,-0.0618467
5.592e-05,-0.0619932
5.594e-05,-0.0619439
5.595e-05,-0.0619349
5.597e-05,-0.0618117
5.598e-05,-0.0617637
5.600e-05,-0.0619258
5.602e-05,-0.0619413
5.603e-05,-0.0620062
5.605e-05,-0.0618441
5.606e-05,-0.0620127
5.608e-05,-0.061857
5.610e-05,-0.0619011
5.611e-05,-0.0620373
5.613e-05,-0.0619543
5.614e-05,-0.0620477
5.616e-05,-0.0618557
5.618e-05,-0.0619284
5.619e-05,-0.0620801
5.621e-05,-0.062023
5.622e-05,-0.0619024
5.624e-05,-0.0618882
5.626e-05,-0.0619673
5.627e-05,-0.0619945
5.629e-05,-0.0621125
5.630e-05,-0.0620542
5.632e-05,-0.0619841
5.634e-05,-0.0620114
5.635e-05,-0.0619349
5.637e-05,-0.0620736
5.638e-05,-0.0620217
5.640e-05,-0.0621981
5.642e-05,-0.0619725
5.643e-05,-0.0619841
5.645e-05,-0.0620438
5.646e-05,-0.0620827
5.648e-05,-0.0621281
5.650e-05,-0.062062
5.651e-05,-0.0619569
5.653e-05,-0.0619413
5.654e-05,-0.0620671
5.656e-05,-0.0621618
5.658e-05,-0.0622137
5.659e-05,-0.0621605
5.661e-05,-0.0620256
5.662e-05,-0.0620049
5.664e-05,-0.0620023
5.666e-05,-0.0622098
5.667e-05,-0.0622357
5.669e-05,-0.0622409
5.670e-05,-0.0621255
5.672e-05,-0.0621307
5.674e-05,-0.0620801
5.675e-05,-0.0622876
5.677e-05,-0.0622435
5.678e-05,-0.0622591
5.680e-05,-0.0622474
5.682e-05,-0.0622318
5.683e-05,-0.0621722
5.685e-05,-0.0621398
5.686e-05,-0.0622305
5.688e-05,-0.0622552
5.690e-05,-0.0621994
5.691e-05,-0.0623045
5.693e-05,-0.0621787
5.694e-05,-0.062228
5.696e-05,-0.0622669
5.698e-05,-0.0622111
5.699e-05,-0.0622993
5.701e-05,-0.0622669
5.702e-05,-0.062202
5.704e-05,-0.0622098
5.706e-05,-0.06225
5.707e-05,-0.0622578
5.709e-05,-0.0622305
5.710e-05,-0.0621813
5.712e-05,-0.0621877
5.714e-05,-0.0621475
5.715e-05,-0.0622513
5.717e-05,-0.0623473
5.718e-05,-0.0622617
5.720e-05,-0.0621086
5.722e-05,-0.0621865
5.723e-05,-0.0621735
5.725e-05,-0.0623006
5.726e-05,-0.0621411
5.728e-05,-0.0621839
5.730e-05,-0.0620827
5.731e-05,-0.0620931
5.733e-05,-0.0621294
5.734e-05,-0.0621359
5.736e-05,-0.062237
5.738e-05,-0.0621903
5.739e-05,-0.0622254
5.741e-05,-0.062023
5.742e-05,-0.0621177
5.744e-05,-0.0621462
5.746e-05,-0.0620957
5.747e-05,-0.062228
5.749e-05,-0.0620762
5.750e-05,-0.0620814
5.752e-05,-0.062014
5.754e-05,-0.062097
5.755e-05,-0.062119
5.757e-05,-0.062119
5.758e-05,-0.0621086
5.760e-05,-0.0620049
5.762e-05,-0.0621437
5.763e-05,-0.062202
5.765e-05,-0.0621151
5.766e-05,-0.0621566
5.768e-05,-0.0620334
5.770e-05,-0.0621151
5.771e-05,-0.0622098
5.773e-05,-0.0621696
5.774e-05,-0.062071
5.776e-05,-0.062097
5.778e-05,-0.0621475
5.779e-05,-0.0621359
5.781e-05,-0.0621553
5.782e-05,-0.0620684
5.784e-05,-0.0621125
5.786e-05,-0.0621709
5.787e-05,-0.0621916
5.789e-05,-0.0622707
5.790e-05,-0.0623408
5.792e-05,-0.0622007
5.794e-05,-0.062167
5.795e-05,-0.0622124
5.797e-05,-0.0624108
5.798e-05,-0.0622137
5.800e-05,-0.0622682
5.802e-05,-0.0621579
5.803e-05,-0.0621942
5.805e-05,-0.0622915
5.806e-05,-0.0623823
5.808e-05,-0.0624121
5.810e-05,-0.0622383
5.811e-05,-0.0623602
5.813e-05,-0.0622539
5.814e-05,-0.0622656
5.816e-05,-0.062521
5.818e-05,-0.0622811
5.819e-05,-0.062438
5.821e-05,-0.0622656
5.822e-05,-0.0624186
5.824e-05,-0.0623486
5.826e-05,-0.0623978
5.827e-05,-0.0623265
5.829e-05,-0.0623654
5.830e-05,-0.0623563
5.832e-05,-0.0625781
5.834e-05,-0.062403
5.835e-05,-0.0623421
5.837e-05,-0.0623563
5.838e-05,-0.0624186
5.840e-05,-0.0624886
5.842e-05,-0.0624497
5.843e-05,-0.0624847
5.845e-05,-0.0624277
5.846e-05,-0.0622733
5.848e-05,-0.0624458
5.850e-05,-0.0624355
5.851e-05,-0.0624406
5.853e-05,-0.0624458
5.854e-05,-0.0623019
5.856e-05,-0.0624121
5.858e-05,-0.0623719
5.859e-05,-0.062451
5.861e-05,-0.062486
5.862e-05,-0.0623434
5.864e-05,-0.0623888
5.866e-05,-0.0622656
5.867e-05,-0.0623512
5.869e-05,-0.0624329
5.870e-05,-0.062355
5.872e-05,-0.062333
5.874e-05,-0.0622526
5.875e-05,-0.0623071
5.877e-05,-0.0623823
5.878e-05,-0.0623084
5.880e-05,-0.0623421
5.882e-05,-0.0623019
5.883e-05,-0.0622085
5.885e-05,-0.0624277
5.886e-05,-0.0622215
5.888e-05,-0.0623239
5.890e-05,-0.0622059
5.891e-05,-0.0623019
5.893e-05,-0.062228
5.894e-05,-0.0623447
5.896e-05,-0.0624017
5.898e-05,-0.0623991
5.899e-05,-0.0622176
5.901e-05,-0.0622928
5.902e-05,-0.0622915
5.904e-05,-0.0624056
5.906e-05,-0.0622915
5.907e-05,-0.0621514
5.909e-05,-0.0621787
5.910e-05,-0.062368
5.912e-05,-0.0623356
5.914e-05,-0.0624212
5.915e-05,-0.0621929
5.917e-05,-0.0622215
5.918e-05,-0.0622189
5.920e-05,-0.06225
5.922e-05,-0.0623434
5.923e-05,-0.0620827
5.925e-05,-0.062189
5.926e-05,-0.0621346
5.928e-05,-0.0622098
5.930e-05,-0.0622915
5.931e-05,-0.062189
5.933e-05,-0.062189
5.934e-05,-0.0622137
5.936e-05,-0.0621216
5.938e-05,-0.0623797
5.939e-05,-0.062154
5.941e-05,-0.0622863
5.942e-05,-0.0621151
5.944e-05,-0.0622617
5.946e-05,-0.0621955
5.947e-05,-0.0622669
5.949e-05,-0.0621839
5.950e-05,-0.0622124
5.952e-05,-0.0621281
5.954e-05,-0.0622526
5.955e-05,-0.0622383
5.957e-05,-0.0622046
5.958e-05,-0.0621735
5.960e-05,-0.0621527
5.962e-05,-0.0622435
5.963e-05,-0.0621852
5.965e-05,-0.0621229
5.966e-05,-0.0622759
5.968e-05,-0.0622202
5.970e-05,-0.0623278
5.971e-05,-0.0622591
5.973e-05,-0.0623045
5.974e-05,-0.0621035
5.976e-05,-0.0622254
5.978e-05,-0.0622292
5.979e-05,-0.0622046
5.981e-05,-0.0622085
5.982e-05,-0.0622513
5.984e-05,-0.062084
5.986e-05,-0.06225
5.987e-05,-0.0622202
5.989e-05,-0.0622682
5.990e-05,-0.0622461
5.992e-05,-0.0622318
5.994e-05,-0.0621229
5.995e-05,-0.0621035
5.997e-05,-0.062145
5.998e-05,-0.0623148
6.000e-05,-0.0622993
6.002e-05,-0.0621592
6.003e-05,-0.0621748
6.005e-05,-0.0621138
6.006e-05,-0.0622967
6.008e-05,-0.062167
6.010e-05,-0.0621852
6.011e-05,-0.0621411
6.013e-05,-0.0621398
6.014e-05,-0.0621955
6.016e-05,-0.0623097
6.018e-05,-0.0621631
6.019e-05,-0.0621657
6.021e-05,-0.0620062
6.022e-05,-0.0621865
6.024e-05,-0.0621294
6.026e-05,-0.0622085
6.027e-05,-0.0621047
6.029e-05,-0.0621514
6.030e-05,-0.0620295
6.032e-05,-0.0621047
6.034e-05,-0.0621372
