Model,TBS1102C
Firmware Version,v2015-08-04-prequal4ch70_v1.3

Point Format,Y
Horizontal Units,S
Horizontal Scale,4e-06
Sample Interval,3.2e-08
Filter Frequency,2e+08
Record Length,2000
Gating,0.0% to 100.0%
Probe Attenuation,1
Vertical Units,V
Vertical Offset,0
Vertical Scale,0.00775
Label,
TIME,CH1
-1.952e-06,-0.0522059
-1.920e-06,-0.0521805
-1.888e-06,-0.052281
-1.856e-06,-0.0522144
-1.824e-06,-0.0521357
-1.792e-06,-0.0523367
-1.760e-06,-0.0522641
-1.728e-06,-0.0522423
-1.696e-06,-0.0523028
-1.664e-06,-0.0523077
-1.632e-06,-0.0521514
-1.600e-06,-0.0522616
-1.568e-06,-0.0521757
-1.536e-06,-0.0522701
-1.504e-06,-0.0524094
-1.472e-06,-0.0521914
-1.440e-06,-0.0524663
-1.408e-06,-0.052304
-1.376e-06,-0.0522471
-1.344e-06,-0.0524614
-1.312e-06,-0.0523016
-1.280e-06,-0.0523343
-1.248e-06,-0.0524045
-1.216e-06,-0.0523634
-1.184e-06,-0.0523404
-1.152e-06,-0.0523452
-1.120e-06,-0.0522883
-1.088e-06,-0.0523888
-1.056e-06,-0.0523646
-1.024e-06,-0.05235
-9.920e-07,-0.0523694
-9.600e-07,-0.0522532
-9.280e-07,-0.0523839
-8.960e-07,-0.0523791
-8.640e-07,-0.0522665
-8.320e-07,-0.0523803
-8.000e-07,-0.0523113
-7.680e-07,-0.0522713
-7.360e-07,-0.052453
-7.040e-07,-0.0523476
-6.720e-07,-0.0523101
-6.400e-07,-0.0523634
-6.080e-07,-0.0522834
-5.760e-07,-0.0522435
-5.440e-07,-0.0523198
-5.120e-07,-0.0521841
-4.800e-07,-0.0522883
-4.480e-07,-0.0522871
-4.160e-07,-0.0523379
-3.840e-07,-0.0523755
-3.520e-07,-0.0523113
-3.200e-07,-0.0522737
-2.880e-07,-0.0522665
-2.560e-07,-0.0524191
-2.240e-07,-0.0522798
-1.920e-07,-0.0524179
-1.600e-07,-0.0524045
-1.280e-07,-0.0524227
-9.600e-08,-0.0524748
-6.400e-08,-0.0529252
-3.200e-08,-0.0506341
-9.357e-21,-0.0544692
3.200e-08,-0.050823
6.400e-08,-0.0533491
9.600e-08,-0.0519432
1.280e-07,-0.0524275
1.600e-07,-0.0523718
1.920e-07,-0.052367
2.240e-07,-0.0523452
2.560e-07,-0.0523755
2.880e-07,-0.0523694
3.200e-07,-0.05239
3.520e-07,-0.0523985
3.840e-07,-0.0524457
4.160e-07,-0.052614
4.480e-07,-0.0524203
4.800e-07,-0.0524554
5.120e-07,-0.0526382
5.440e-07,-0.0525329
5.760e-07,-0.0525632
6.080e-07,-0.0526152
6.400e-07,-0.0527061
6.720e-07,-0.0524421
7.040e-07,-0.0526891
7.360e-07,-0.0526661
7.680e-07,-0.052637
8.000e-07,-0.0526879
8.320e-07,-0.0528417
8.640e-07,-0.0526746
8.960e-07,-0.0528744
9.280e-07,-0.0527145
9.600e-07,-0.0527775
9.920e-07,-0.0528925
1.024e-06,-0.0527387
1.056e-06,-0.0528187
1.088e-06,-0.0527872
1.120e-06,-0.0527957
1.152e-06,-0.0527509
1.184e-06,-0.0527787
1.216e-06,-0.0527981
1.248e-06,-0.0527678
1.280e-06,-0.052809
1.312e-06,-0.0527823
1.344e-06,-0.0526407
1.376e-06,-0.0527048
1.408e-06,-0.0528102
1.440e-06,-0.0527375
1.472e-06,-0.0527593
1.504e-06,-0.0526528
1.536e-06,-0.0528429
1.568e-06,-0.0526249
1.600e-06,-0.0527242
1.632e-06,-0.0529131
1.664e-06,-0.0527157
1.696e-06,-0.0527739
1.728e-06,-0.0528732
1.760e-06,-0.052591
1.792e-06,-0.0528041
1.824e-06,-0.0528514
1.856e-06,-0.0527727
1.888e-06,-0.0528514
1.920e-06,-0.0528308
1.952e-06,-0.0528199
1.984e-06,-0.0529555
2.016e-06,-0.052717
2.048e-06,-0.0528175
2.080e-06,-0.0528514
2.112e-06,-0.0529967
2.144e-06,-0.052872
2.176e-06,-0.0529519
2.208e-06,-0.0529168
2.240e-06,-0.0529386
2.272e-06,-0.0528962
2.304e-06,-0.0528913
2.336e-06,-0.0530233
2.368e-06,-0.0528925
2.400e-06,-0.0528054
2.432e-06,-0.052964
2.464e-06,-0.0528998
2.496e-06,-0.0529059
2.528e-06,-0.0529313
2.560e-06,-0.0528502
2.592e-06,-0.0529131
2.624e-06,-0.0527605
2.656e-06,-0.0528175
2.688e-06,-0.052947
2.720e-06,-0.0528804
2.752e-06,-0.0529482
2.784e-06,-0.0528562
2.816e-06,-0.0527291
2.848e-06,-0.0527957
2.880e-06,-0.0529773
2.912e-06,-0.0527969
2.944e-06,-0.0528925
2.976e-06,-0.052964
3.008e-06,-0.0528247
3.040e-06,-0.0528005
3.072e-06,-0.0529228
3.104e-06,-0.0527605
3.136e-06,-0.0527605
3.168e-06,-0.0528175
3.200e-06,-0.0529228
3.232e-06,-0.0527533
3.264e-06,-0.0528332
3.296e-06,-0.0527811
3.328e-06,-0.052792
3.360e-06,-0.0527836
3.392e-06,-0.0529059
3.424e-06,-0.0527484
3.456e-06,-0.0527872
3.488e-06,-0.0528308
3.520e-06,-0.0526843
3.552e-06,-0.0527957
3.584e-06,-0.0527436
3.616e-06,-0.0527145
3.648e-06,-0.052769
3.680e-06,-0.0527073
3.712e-06,-0.0526407
3.744e-06,-0.0527739
3.776e-06,-0.0525971
3.808e-06,-0.0525729
3.840e-06,-0.0527303
3.872e-06,-0.0525995
3.904e-06,-0.0527254
3.936e-06,-0.0526903
3.968e-06,-0.0526552
4.000e-06,-0.0526939
4.032e-06,-0.0526964
4.064e-06,-0.0526855
4.096e-06,-0.052769
4.128e-06,-0.0526189
4.160e-06,-0.0527
4.192e-06,-0.0527024
4.224e-06,-0.0526443
4.256e-06,-0.0527896
4.288e-06,-0.0527908
4.320e-06,-0.0527048
4.352e-06,-0.0527061
4.384e-06,-0.0528417
4.416e-06,-0.0527048
4.448e-06,-0.052792
4.480e-06,-0.0528247
4.512e-06,-0.0526055
4.544e-06,-0.0526806
4.576e-06,-0.0528259
4.608e-06,-0.0526685
4.640e-06,-0.0527036
4.672e-06,-0.0527145
4.704e-06,-0.0527642
4.736e-06,-0.0527387
4.768e-06,-0.0526479
4.800e-06,-0.0527073
4.832e-06,-0.0526661
4.864e-06,-0.0526855
4.896e-06,-0.0526419
4.928e-06,-0.0526298
4.960e-06,-0.0526915
4.992e-06,-0.0526528
5.024e-06,-0.0526395
5.056e-06,-0.0526201
5.088e-06,-0.0526818
5.120e-06,-0.0526031
5.152e-06,-0.0526843
5.184e-06,-0.0526298
5.216e-06,-0.0526903
5.248e-06,-0.0527097
5.280e-06,-0.052717
5.312e-06,-0.0526697
5.344e-06,-0.0527872
5.376e-06,-0.0526201
5.408e-06,-0.052654
5.440e-06,-0.0527763
5.472e-06,-0.0527448
5.504e-06,-0.0526976
5.536e-06,-0.0528162
5.568e-06,-0.0526588
5.600e-06,-0.0526358
5.632e-06,-0.0528368
5.664e-06,-0.052746
5.696e-06,-0.0526576
5.728e-06,-0.0527836
5.760e-06,-0.0527121
5.792e-06,-0.0527811
5.824e-06,-0.0527157
5.856e-06,-0.0527799
5.888e-06,-0.0527714
5.920e-06,-0.0527036
5.952e-06,-0.0528005
5.984e-06,-0.0526794
6.016e-06,-0.0526564
6.048e-06,-0.052855
6.080e-06,-0.0527412
6.112e-06,-0.0526964
6.144e-06,-0.0527896
6.176e-06,-0.0526043
6.208e-06,-0.052683
6.240e-06,-0.0527569
6.272e-06,-0.0526128
6.304e-06,-0.0527714
6.336e-06,-0.0527739
6.368e-06,-0.0527182
6.400e-06,-0.0527351
6.432e-06,-0.0527182
6.464e-06,-0.0526346
6.496e-06,-0.0527048
6.528e-06,-0.0528405
6.560e-06,-0.0527085
6.592e-06,-0.0526673
6.624e-06,-0.0527218
6.656e-06,-0.0526552
6.688e-06,-0.0527097
6.720e-06,-0.052763
6.752e-06,-0.0527545
6.784e-06,-0.0526564
6.816e-06,-0.0527266
6.848e-06,-0.0525777
6.880e-06,-0.0525995
6.912e-06,-0.0528259
6.944e-06,-0.0527048
6.976e-06,-0.052677
7.008e-06,-0.052786
7.040e-06,-0.0526455
7.072e-06,-0.0526273
7.104e-06,-0.0527133
7.136e-06,-0.0527412
7.168e-06,-0.0526625
7.200e-06,-0.0527182
7.232e-06,-0.0526649
7.264e-06,-0.0525874
7.296e-06,-0.0527509
7.328e-06,-0.0526661
7.360e-06,-0.0526334
7.392e-06,-0.0527605
7.424e-06,-0.0526152
7.456e-06,-0.0526261
7.488e-06,-0.0526891
7.520e-06,-0.0526092
7.552e-06,-0.0527315
7.584e-06,-0.0527605
7.616e-06,-0.0526261
7.648e-06,-0.0527024
7.680e-06,-0.0526552
7.712e-06,-0.0525922
7.744e-06,-0.0527727
7.776e-06,-0.0526588
7.808e-06,-0.0526273
7.840e-06,-0.0527872
7.872e-06,-0.0526867
7.904e-06,-0.0526443
7.936e-06,-0.0526588
7.968e-06,-0.0527327
8.000e-06,-0.052815
8.032e-06,-0.0527605
8.064e-06,-0.0526225
8.096e-06,-0.0528417
8.128e-06,-0.0527412
8.160e-06,-0.0527048
8.192e-06,-0.052832
8.224e-06,-0.0528453
8.256e-06,-0.0526358
8.288e-06,-0.0528102
8.320e-06,-0.0527811
8.352e-06,-0.0528368
8.384e-06,-0.0527484
8.416e-06,-0.0527775
8.448e-06,-0.0528841
8.480e-06,-0.0527363
8.512e-06,-0.0527714
8.544e-06,-0.0527727
8.576e-06,-0.0527945
8.608e-06,-0.0528271
8.640e-06,-0.0527751
8.672e-06,-0.0528029
8.704e-06,-0.0528611
8.736e-06,-0.0528247
8.768e-06,-0.0528259
8.800e-06,-0.0527618
8.832e-06,-0.0527823
8.864e-06,-0.0527848
8.896e-06,-0.0527957
8.928e-06,-0.0527509
8.960e-06,-0.0527957
8.992e-06,-0.0528054
9.024e-06,-0.0527957
9.056e-06,-0.05274
9.088e-06,-0.0529398
9.120e-06,-0.0526346
9.152e-06,-0.0527557
9.184e-06,-0.0528695
9.216e-06,-0.0527424
9.248e-06,-0.0527496
9.280e-06,-0.0527484
9.312e-06,-0.0527097
9.344e-06,-0.0528029
9.376e-06,-0.0527036
9.408e-06,-0.0527145
9.440e-06,-0.0528308
9.472e-06,-0.0527484
9.504e-06,-0.0527327
9.536e-06,-0.0528005
9.568e-06,-0.0527327
9.600e-06,-0.0528235
9.632e-06,-0.0528235
9.664e-06,-0.0527678
9.696e-06,-0.0528732
9.728e-06,-0.0527387
9.760e-06,-0.0527581
9.792e-06,-0.0527557
9.824e-06,-0.0526407
9.856e-06,-0.052763
9.888e-06,-0.0527969
9.920e-06,-0.0528247
9.952e-06,-0.0527048
9.984e-06,-0.0527218
1.002e-05,-0.0527121
1.005e-05,-0.0526322
1.008e-05,-0.0527121
1.011e-05,-0.0527133
1.014e-05,-0.0527339
1.018e-05,-0.0527242
1.021e-05,-0.0527194
1.024e-05,-0.0525692
1.027e-05,-0.0527
1.030e-05,-0.0526867
1.034e-05,-0.0526273
1.037e-05,-0.0526128
1.040e-05,-0.052723
1.043e-05,-0.0525293
1.046e-05,-0.0526213
1.050e-05,-0.0527375
1.053e-05,-0.052591
1.056e-05,-0.0526903
1.059e-05,-0.0525607
1.062e-05,-0.0525232
1.066e-05,-0.0527012
1.069e-05,-0.052499
1.072e-05,-0.0526346
1.075e-05,-0.0526552
1.078e-05,-0.0526043
1.082e-05,-0.0526152
1.085e-05,-0.0525959
1.088e-05,-0.052631
1.091e-05,-0.0525813
1.094e-05,-0.0527569
1.098e-05,-0.0526237
1.101e-05,-0.0525789
1.104e-05,-0.0526891
1.107e-05,-0.0527061
1.110e-05,-0.0526915
1.114e-05,-0.0526782
1.117e-05,-0.0526516
1.120e-05,-0.0526625
1.123e-05,-0.0527654
1.126e-05,-0.0525983
1.130e-05,-0.0526625
1.133e-05,-0.0527327
1.136e-05,-0.0526794
1.139e-05,-0.052792
1.142e-05,-0.0527436
1.146e-05,-0.0527279
1.149e-05,-0.0525959
1.152e-05,-0.0528284
1.155e-05,-0.0528477
1.158e-05,-0.052769
1.162e-05,-0.0527339
1.165e-05,-0.0528078
1.168e-05,-0.052746
1.171e-05,-0.0528332
1.174e-05,-0.0528162
1.178e-05,-0.0528162
1.181e-05,-0.0529143
1.184e-05,-0.0528175
1.187e-05,-0.0527751
1.190e-05,-0.0528962
1.194e-05,-0.0527811
1.197e-05,-0.0528986
1.200e-05,-0.0528744
1.203e-05,-0.0529349
1.206e-05,-0.0528429
1.210e-05,-0.0528756
1.213e-05,-0.052941
1.216e-05,-0.052872
1.219e-05,-0.0528538
1.222e-05,-0.0528526
1.226e-05,-0.0529107
1.229e-05,-0.0528247
1.232e-05,-0.0528986
1.235e-05,-0.0528211
1.238e-05,-0.0528732
1.242e-05,-0.0528477
1.245e-05,-0.0529652
1.248e-05,-0.0528514
1.251e-05,-0.0528162
1.254e-05,-0.0529034
1.258e-05,-0.0528659
1.261e-05,-0.0528853
1.264e-05,-0.0529325
1.267e-05,-0.0528756
1.270e-05,-0.0528804
1.274e-05,-0.0530294
1.277e-05,-0.0529301
1.280e-05,-0.0529071
1.283e-05,-0.0529519
1.286e-05,-0.0528598
1.290e-05,-0.0528937
1.293e-05,-0.052924
1.296e-05,-0.0529652
1.299e-05,-0.0529482
1.302e-05,-0.052964
1.306e-05,-0.0528526
1.309e-05,-0.0529192
1.312e-05,-0.0530415
1.315e-05,-0.0529277
1.318e-05,-0.0529131
1.322e-05,-0.0530475
1.325e-05,-0.0529943
1.328e-05,-0.0530015
1.331e-05,-0.0529373
1.334e-05,-0.0528768
1.338e-05,-0.0529325
1.341e-05,-0.0528477
1.344e-05,-0.0528986
1.347e-05,-0.0529616
1.350e-05,-0.0529071
1.354e-05,-0.0529313
1.357e-05,-0.0528744
1.360e-05,-0.0528986
1.363e-05,-0.0529216
1.366e-05,-0.0528804
1.370e-05,-0.052872
1.373e-05,-0.0528199
1.376e-05,-0.0528259
1.379e-05,-0.0528635
1.382e-05,-0.0528889
1.386e-05,-0.0527569
1.389e-05,-0.0528974
1.392e-05,-0.0529361
1.395e-05,-0.0527133
1.398e-05,-0.0527666
1.402e-05,-0.052792
1.405e-05,-0.0528271
1.408e-05,-0.0528126
1.411e-05,-0.0528247
1.414e-05,-0.0528054
1.418e-05,-0.0526952
1.421e-05,-0.0527739
1.424e-05,-0.0527315
1.427e-05,-0.0527157
1.430e-05,-0.0528465
1.434e-05,-0.0528538
1.437e-05,-0.0528465
1.440e-05,-0.0528114
1.443e-05,-0.0528465
1.446e-05,-0.0528332
1.450e-05,-0.0527254
1.453e-05,-0.0529664
1.456e-05,-0.0528029
1.459e-05,-0.0528078
1.462e-05,-0.0528453
1.466e-05,-0.0527545
1.469e-05,-0.0528138
1.472e-05,-0.052895
1.475e-05,-0.0528635
1.478e-05,-0.0528962
1.482e-05,-0.0528829
1.485e-05,-0.0528344
1.488e-05,-0.0529821
1.491e-05,-0.0528574
1.494e-05,-0.0528877
1.498e-05,-0.0529918
1.501e-05,-0.0527436
1.504e-05,-0.0529325
1.507e-05,-0.0530221
1.510e-05,-0.0528598
1.514e-05,-0.0530282
1.517e-05,-0.0528853
1.520e-05,-0.05297
1.523e-05,-0.0530112
1.526e-05,-0.0529579
1.530e-05,-0.052987
1.533e-05,-0.0530185
1.536e-05,-0.052918
1.539e-05,-0.0529809
1.542e-05,-0.0528877
1.546e-05,-0.0529434
1.549e-05,-0.0528974
1.552e-05,-0.0529712
1.555e-05,-0.0530039
1.558e-05,-0.052901
1.562e-05,-0.0528683
1.565e-05,-0.0529737
1.568e-05,-0.0528683
1.571e-05,-0.0528683
1.574e-05,-0.0529131
1.578e-05,-0.0528611
1.581e-05,-0.052947
1.584e-05,-0.0529761
1.587e-05,-0.052838
1.590e-05,-0.0529482
1.594e-05,-0.0529991
1.597e-05,-0.0529446
1.600e-05,-0.0529143
1.603e-05,-0.0529325
1.606e-05,-0.0527932
1.610e-05,-0.052901
1.613e-05,-0.052987
1.616e-05,-0.0528405
1.619e-05,-0.0529034
1.622e-05,-0.0529894
1.626e-05,-0.0527836
1.629e-05,-0.0528489
1.632e-05,-0.0530257
1.635e-05,-0.0528138
1.638e-05,-0.0528393
1.642e-05,-0.0528005
1.645e-05,-0.0528877
1.648e-05,-0.052792
1.651e-05,-0.0527642
1.654e-05,-0.052809
1.658e-05,-0.0528271
1.661e-05,-0.0528041
1.664e-05,-0.0527993
1.667e-05,-0.0528041
1.670e-05,-0.0529313
1.674e-05,-0.0527351
1.677e-05,-0.0528429
1.680e-05,-0.0528187
1.683e-05,-0.0528162
1.686e-05,-0.0528284
1.690e-05,-0.0529095
1.693e-05,-0.0528489
1.696e-05,-0.0527424
1.699e-05,-0.0528974
1.702e-05,-0.0529192
1.706e-05,-0.0527545
1.709e-05,-0.052947
1.712e-05,-0.0528223
1.715e-05,-0.0527799
1.718e-05,-0.052918
1.722e-05,-0.0527496
1.725e-05,-0.0529555
1.728e-05,-0.0528393
1.731e-05,-0.0528695
1.734e-05,-0.052815
1.738e-05,-0.0528429
1.741e-05,-0.0529809
1.744e-05,-0.0528647
1.747e-05,-0.0529143
1.750e-05,-0.0529604
1.754e-05,-0.0528223
1.757e-05,-0.0528417
1.760e-05,-0.0528078
1.763e-05,-0.0529107
1.766e-05,-0.0528586
1.770e-05,-0.0528538
1.773e-05,-0.0527993
1.776e-05,-0.052809
1.779e-05,-0.0528441
1.782e-05,-0.0527121
1.786e-05,-0.0528756
1.789e-05,-0.0528441
1.792e-05,-0.0527763
1.795e-05,-0.0528562
1.798e-05,-0.0527387
1.802e-05,-0.0527182
1.805e-05,-0.0527291
1.808e-05,-0.0527678
1.811e-05,-0.0527811
1.814e-05,-0.0527
1.818e-05,-0.052631
1.821e-05,-0.0526734
1.824e-05,-0.0525656
1.827e-05,-0.0526746
1.830e-05,-0.0526685
1.834e-05,-0.052585
1.837e-05,-0.0526467
1.840e-05,-0.0526164
1.843e-05,-0.0525377
1.846e-05,-0.0527327
1.850e-05,-0.0527448
1.853e-05,-0.0525559
1.856e-05,-0.0526588
1.859e-05,-0.0526734
1.862e-05,-0.0525147
1.866e-05,-0.0527279
1.869e-05,-0.0527145
1.872e-05,-0.0526455
1.875e-05,-0.0527121
1.878e-05,-0.0526927
1.882e-05,-0.0526043
1.885e-05,-0.0528199
1.888e-05,-0.0527303
1.891e-05,-0.0526964
1.894e-05,-0.0527945
1.898e-05,-0.0527823
1.901e-05,-0.0527206
1.904e-05,-0.0527642
1.907e-05,-0.0527787
1.910e-05,-0.0528005
1.914e-05,-0.0527848
1.917e-05,-0.0528574
1.920e-05,-0.052746
1.923e-05,-0.0527073
1.926e-05,-0.0527739
1.930e-05,-0.0528138
1.933e-05,-0.0527714
1.936e-05,-0.0527896
1.939e-05,-0.0527884
1.942e-05,-0.0527714
1.946e-05,-0.0526734
1.949e-05,-0.0528284
1.952e-05,-0.0527702
1.955e-05,-0.0528429
1.958e-05,-0.0528853
1.962e-05,-0.0526504
1.965e-05,-0.0527702
1.968e-05,-0.0528804
1.971e-05,-0.0528162
1.974e-05,-0.0528816
1.978e-05,-0.0529192
1.981e-05,-0.0528247
1.984e-05,-0.0528054
1.987e-05,-0.0528998
1.990e-05,-0.052964
1.994e-05,-0.0528175
1.997e-05,-0.0529046
2.000e-05,-0.0528332
2.003e-05,-0.0528465
2.006e-05,-0.0529785
2.010e-05,-0.0528223
2.013e-05,-0.0529095
2.016e-05,-0.0530209
2.019e-05,-0.0528804
2.022e-05,-0.052964
2.026e-05,-0.0530185
2.029e-05,-0.0528538
2.032e-05,-0.0529858
2.035e-05,-0.0529628
2.038e-05,-0.052947
2.042e-05,-0.0528925
2.045e-05,-0.0529688
2.048e-05,-0.0529749
2.051e-05,-0.0529664
2.054e-05,-0.0529204
2.058e-05,-0.0529591
2.061e-05,-0.0530366
2.064e-05,-0.0529955
2.067e-05,-0.0529604
2.070e-05,-0.0529277
2.074e-05,-0.0529591
2.077e-05,-0.0529712
2.080e-05,-0.052901
2.083e-05,-0.0528998
2.086e-05,-0.0530778
2.090e-05,-0.052832
2.093e-05,-0.0529422
2.096e-05,-0.052878
2.099e-05,-0.052815
2.102e-05,-0.0529555
2.106e-05,-0.0528816
2.109e-05,-0.0528126
2.112e-05,-0.0528417
2.115e-05,-0.0528417
2.118e-05,-0.0527145
2.122e-05,-0.0528986
2.125e-05,-0.0528683
2.128e-05,-0.052832
2.131e-05,-0.0527775
2.134e-05,-0.0529434
2.138e-05,-0.0527472
2.141e-05,-0.0527896
2.144e-05,-0.0529034
2.147e-05,-0.0528489
2.150e-05,-0.0528816
2.154e-05,-0.0528853
2.157e-05,-0.0527787
2.160e-05,-0.0528768
2.163e-05,-0.0528187
2.166e-05,-0.0529725
2.170e-05,-0.052941
2.173e-05,-0.0529664
2.176e-05,-0.0529688
2.179e-05,-0.0528162
2.182e-05,-0.0529422
2.186e-05,-0.0529785
2.189e-05,-0.0529289
2.192e-05,-0.0529688
2.195e-05,-0.0529676
2.198e-05,-0.0529579
2.202e-05,-0.0529773
2.205e-05,-0.05305
2.208e-05,-0.0529858
2.211e-05,-0.0530427
2.214e-05,-0.0530391
2.218e-05,-0.0530572
2.221e-05,-0.0530088
2.224e-05,-0.0530936
2.227e-05,-0.0530596
2.230e-05,-0.0530427
2.234e-05,-0.0532001
2.237e-05,-0.0531614
2.240e-05,-0.0531408
2.243e-05,-0.0530693
2.246e-05,-0.0531965
2.250e-05,-0.0530439
2.253e-05,-0.0531444
2.256e-05,-0.0531311
2.259e-05,-0.052918
2.262e-05,-0.0531929
2.266e-05,-0.0531771
2.269e-05,-0.0531359
2.272e-05,-0.0531444
2.275e-05,-0.0531977
2.278e-05,-0.0531105
2.282e-05,-0.0531008
2.285e-05,-0.0531977
2.288e-05,-0.0532134
2.291e-05,-0.0532062
2.294e-05,-0.0531602
2.298e-05,-0.053165
2.301e-05,-0.0531311
2.304e-05,-0.0531275
2.307e-05,-0.0531226
2.310e-05,-0.0532486
2.314e-05,-0.0532159
2.317e-05,-0.0531287
2.320e-05,-0.0531807
2.323e-05,-0.0532328
2.326e-05,-0.0532946
2.330e-05,-0.053297
2.333e-05,-0.0533224
2.336e-05,-0.0533236
2.339e-05,-0.0532982
2.342e-05,-0.0533684
2.346e-05,-0.0534036
2.349e-05,-0.0533854
2.352e-05,-0.0534544
2.355e-05,-0.0535985
2.358e-05,-0.0534823
2.362e-05,-0.053521
2.365e-05,-0.0535852
2.368e-05,-0.0535343
2.371e-05,-0.0535416
2.374e-05,-0.0536457
2.378e-05,-0.0536179
2.381e-05,-0.0536603
2.384e-05,-0.0537027
2.387e-05,-0.0536784
2.390e-05,-0.0538068
2.394e-05,-0.053831
2.397e-05,-0.0536905
2.400e-05,-0.0538419
2.403e-05,-0.0538068
2.406e-05,-0.0536421
2.410e-05,-0.053923
2.413e-05,-0.0538782
2.416e-05,-0.0539
2.419e-05,-0.0540139
2.422e-05,-0.053825
2.426e-05,-0.0540187
2.429e-05,-0.0538928
2.432e-05,-0.0539134
2.435e-05,-0.0541616
2.438e-05,-0.0540623
2.442e-05,-0.0539824
2.445e-05,-0.0541095
2.448e-05,-0.0541555
2.451e-05,-0.0543045
2.454e-05,-0.0541483
2.458e-05,-0.0542548
2.461e-05,-0.0543009
2.464e-05,-0.0543505
2.467e-05,-0.054468
2.470e-05,-0.0545879
2.474e-05,-0.0544256
2.477e-05,-0.0544934
2.480e-05,-0.0546775
2.483e-05,-0.0545794
2.486e-05,-0.0548034
2.490e-05,-0.0548143
2.493e-05,-0.0548748
2.496e-05,-0.0549463
2.499e-05,-0.0549148
2.502e-05,-0.0551304
2.506e-05,-0.0550674
2.509e-05,-0.0551521
2.512e-05,-0.0552611
2.515e-05,-0.0553629
2.518e-05,-0.055398
2.522e-05,-0.0555094
2.525e-05,-0.0555518
2.528e-05,-0.055513
2.531e-05,-0.0557007
2.534e-05,-0.055731
2.538e-05,-0.0559477
2.541e-05,-0.0559308
2.544e-05,-0.0559792
2.547e-05,-0.056127
2.550e-05,-0.0561621
2.554e-05,-0.0562929
2.557e-05,-0.0563837
2.560e-05,-0.0563921
2.563e-05,-0.0565907
2.566e-05,-0.0566041
2.570e-05,-0.0567021
2.573e-05,-0.0567457
2.576e-05,-0.0569504
2.579e-05,-0.0570279
2.582e-05,-0.0570763
2.586e-05,-0.0572047
2.589e-05,-0.0572882
2.592e-05,-0.0575256
2.595e-05,-0.0575171
2.598e-05,-0.0576842
2.602e-05,-0.0577617
2.605e-05,-0.0578659
2.608e-05,-0.0580257
2.611e-05,-0.0581904
2.614e-05,-0.0583091
2.618e-05,-0.05832
2.621e-05,-0.058544
2.624e-05,-0.0587208
2.627e-05,-0.0587402
2.630e-05,-0.0590356
2.634e-05,-0.0590296
2.637e-05,-0.0590611
2.640e-05,-0.0592584
2.643e-05,-0.0594486
2.646e-05,-0.0595309
2.650e-05,-0.0598203
2.653e-05,-0.0597997
2.656e-05,-0.0599814
2.659e-05,-0.0601836
2.662e-05,-0.0601848
2.666e-05,-0.0603083
2.669e-05,-0.0605154
2.672e-05,-0.0605977
2.675e-05,-0.0608109
2.678e-05,-0.0608496
2.682e-05,-0.0610712
2.685e-05,-0.0611899
2.688e-05,-0.0612843
2.691e-05,-0.0613861
2.694e-05,-0.0616282
2.698e-05,-0.0617263
2.701e-05,-0.0618026
2.704e-05,-0.0619625
2.707e-05,-0.0621187
2.710e-05,-0.0622289
2.714e-05,-0.0624577
2.717e-05,-0.0626236
2.720e-05,-0.062683
2.723e-05,-0.0628646
2.726e-05,-0.0630063
2.730e-05,-0.0631213
2.733e-05,-0.0633538
2.736e-05,-0.0634059
2.739e-05,-0.0635439
2.742e-05,-0.0637341
2.746e-05,-0.063883
2.749e-05,-0.0640162
2.752e-05,-0.0642572
2.755e-05,-0.0642862
2.758e-05,-0.0644957
2.762e-05,-0.0645272
2.765e-05,-0.0648614
2.768e-05,-0.0649268
2.771e-05,-0.0650455
2.774e-05,-0.0652744
2.778e-05,-0.0654354
2.781e-05,-0.0654911
2.784e-05,-0.065674
2.787e-05,-0.0658084
2.790e-05,-0.0660179
2.794e-05,-0.0661632
2.797e-05,-0.0663158
2.800e-05,-0.0664018
2.803e-05,-0.0664889
2.806e-05,-0.0668655
2.810e-05,-0.0668244
2.813e-05,-0.0670811
2.816e-05,-0.0671828
2.819e-05,-0.0673354
2.822e-05,-0.0674311
2.826e-05,-0.0676599
2.829e-05,-0.0677326
2.832e-05,-0.0678512
2.835e-05,-0.0680632
2.838e-05,-0.0681867
2.842e-05,-0.0683925
2.845e-05,-0.0683489
2.848e-05,-0.0683841
2.851e-05,-0.0686916
2.854e-05,-0.0686299
2.858e-05,-0.0688733
2.861e-05,-0.069044
2.864e-05,-0.0689956
2.867e-05,-0.0691736
2.870e-05,-0.0692269
2.874e-05,-0.0694509
2.877e-05,-0.0694739
2.880e-05,-0.0696047
2.883e-05,-0.0696931
2.886e-05,-0.0697924
2.890e-05,-0.0699401
2.893e-05,-0.0699728
2.896e-05,-0.070129
2.899e-05,-0.0700951
2.902e-05,-0.0701871
2.906e-05,-0.0703458
2.909e-05,-0.0704318
2.912e-05,-0.0705904
2.915e-05,-0.0705686
2.918e-05,-0.0706255
2.922e-05,-0.0707212
2.925e-05,-0.0709064
2.928e-05,-0.0708859
2.931e-05,-0.0708907
2.934e-05,-0.0710881
2.938e-05,-0.0710203
2.941e-05,-0.0711959
2.944e-05,-0.0711365
2.947e-05,-0.071283
2.950e-05,-0.0712843
2.954e-05,-0.0714162
2.957e-05,-0.0713642
2.960e-05,-0.0714175
2.963e-05,-0.071495
2.966e-05,-0.0715664
2.970e-05,-0.0715422
2.973e-05,-0.0715192
2.976e-05,-0.0715664
2.979e-05,-0.0715761
2.982e-05,-0.0716391
2.986e-05,-0.0717154
2.989e-05,-0.071627
2.992e-05,-0.0716245
2.995e-05,-0.0715628
2.998e-05,-0.0717408
3.002e-05,-0.0716257
3.005e-05,-0.0717359
3.008e-05,-0.0717238
3.011e-05,-0.0715264
3.014e-05,-0.0716209
3.018e-05,-0.0716173
3.021e-05,-0.0715434
3.024e-05,-0.0716439
3.027e-05,-0.0714271
3.030e-05,-0.0714768
3.034e-05,-0.0714937
3.037e-05,-0.0713884
3.040e-05,-0.0714429
3.043e-05,-0.0713993
3.046e-05,-0.0712879
3.050e-05,-0.0713666
3.053e-05,-0.0711196
3.056e-05,-0.0711571
3.059e-05,-0.0711886
3.062e-05,-0.0709282
3.066e-05,-0.0709186
3.069e-05,-0.0709646
3.072e-05,-0.0708084
3.075e-05,-0.070634
3.078e-05,-0.0706752
3.082e-05,-0.0705662
3.085e-05,-0.0704826
3.088e-05,-0.0704584
3.091e-05,-0.0703022
3.094e-05,-0.0701484
3.098e-05,-0.069991
3.101e-05,-0.0699643
3.104e-05,-0.0698057
3.107e-05,-0.0697294
3.110e-05,-0.069664
3.114e-05,-0.0694812
3.117e-05,-0.0693286
3.120e-05,-0.0692269
3.123e-05,-0.0691155
3.126e-05,-0.0688503
3.130e-05,-0.0687025
3.133e-05,-0.0688127
3.136e-05,-0.0685015
3.139e-05,-0.0684143
3.142e-05,-0.0685148
3.146e-05,-0.0680632
3.149e-05,-0.0679929
3.152e-05,-0.0678706
3.155e-05,-0.0675715
3.158e-05,-0.0677035
3.162e-05,-0.0674662
3.165e-05,-0.0672446
3.168e-05,-0.0670932
3.171e-05,-0.0668922
3.174e-05,-0.066805
3.178e-05,-0.0666379
3.181e-05,-0.0666004
3.184e-05,-0.0661947
3.187e-05,-0.0660724
3.190e-05,-0.0661123
3.194e-05,-0.0657006
3.197e-05,-0.0655965
3.200e-05,-0.0656122
3.203e-05,-0.065278
3.206e-05,-0.0651048
3.210e-05,-0.0650055
3.213e-05,-0.0647077
3.216e-05,-0.0646532
3.219e-05,-0.0644606
3.222e-05,-0.0642693
3.226e-05,-0.06421
3.229e-05,-0.0638963
3.232e-05,-0.0637074
3.235e-05,-0.0636953
3.238e-05,-0.06355
3.242e-05,-0.0632303
3.245e-05,-0.06324
3.248e-05,-0.0630571
3.251e-05,-0.0628731
3.254e-05,-0.0626818
3.258e-05,-0.0625921
3.261e-05,-0.0623645
3.264e-05,-0.0621792
3.267e-05,-0.0621344
3.270e-05,-0.0617941
3.274e-05,-0.0617336
3.277e-05,-0.0615955
3.280e-05,-0.0613739
3.283e-05,-0.0613352
3.286e-05,-0.0611729
3.290e-05,-0.0608593
3.293e-05,-0.0607733
3.296e-05,-0.0607261
3.299e-05,-0.0604742
3.302e-05,-0.0604476
3.306e-05,-0.0602005
3.309e-05,-0.0600225
3.312e-05,-0.0598893
3.315e-05,-0.0598385
3.318e-05,-0.0596968
3.322e-05,-0.0595103
3.325e-05,-0.0593468
3.328e-05,-0.0591918
3.331e-05,-0.058969
3.334e-05,-0.0588673
3.338e-05,-0.058785
3.341e-05,-0.0586542
3.344e-05,-0.0585343
3.347e-05,-0.0583006
3.350e-05,-0.0582037
3.354e-05,-0.0582098
3.357e-05,-0.0579773
3.360e-05,-0.0579107
3.363e-05,-0.0578332
3.366e-05,-0.0576394
3.370e-05,-0.0576249
3.373e-05,-0.0575002
3.376e-05,-0.0574299
3.379e-05,-0.0572834
3.382e-05,-0.0571005
3.386e-05,-0.0570521
3.389e-05,-0.0570097
3.392e-05,-0.0569419
3.395e-05,-0.0568111
3.398e-05,-0.0567215
3.402e-05,-0.0566622
3.405e-05,-0.0566319
3.408e-05,-0.0564902
3.411e-05,-0.0563679
3.414e-05,-0.0563643
3.418e-05,-0.0561257
3.421e-05,-0.0560737
3.424e-05,-0.0561863
3.427e-05,-0.0559768
3.430e-05,-0.0557419
3.434e-05,-0.0558182
3.437e-05,-0.0556244
3.440e-05,-0.055582
3.443e-05,-0.0555699
3.446e-05,-0.0554694
3.450e-05,-0.055375
3.453e-05,-0.0552999
3.456e-05,-0.0551764
3.459e-05,-0.0551425
3.462e-05,-0.0550783
3.466e-05,-0.0550129
3.469e-05,-0.0548821
3.472e-05,-0.0547986
3.475e-05,-0.0548179
3.478e-05,-0.0547925
3.482e-05,-0.0547429
3.485e-05,-0.0546508
3.488e-05,-0.0546109
3.491e-05,-0.0546084
3.494e-05,-0.0544583
3.498e-05,-0.054445
3.501e-05,-0.054382
3.504e-05,-0.0543578
3.507e-05,-0.0542803
3.510e-05,-0.0542439
3.514e-05,-0.0542863
3.517e-05,-0.0541798
3.520e-05,-0.054032
3.523e-05,-0.0540066
3.526e-05,-0.0540659
3.530e-05,-0.0539255
3.533e-05,-0.0540005
3.536e-05,-0.0538443
3.539e-05,-0.0538928
3.542e-05,-0.0536554
3.546e-05,-0.0536724
3.549e-05,-0.0536675
3.552e-05,-0.0537656
3.555e-05,-0.0536663
3.558e-05,-0.0536021
3.562e-05,-0.0536021
3.565e-05,-0.0534689
3.568e-05,-0.0535513
3.571e-05,-0.0535404
3.574e-05,-0.0535174
3.578e-05,-0.053389
3.581e-05,-0.0533818
3.584e-05,-0.053406
3.587e-05,-0.0533914
3.590e-05,-0.0534132
3.594e-05,-0.0533406
3.597e-05,-0.0533152
3.600e-05,-0.0534193
3.603e-05,-0.0533721
3.606e-05,-0.05336
3.610e-05,-0.0531892
3.613e-05,-0.0533067
3.616e-05,-0.0532958
3.619e-05,-0.0532437
3.622e-05,-0.0534774
3.626e-05,-0.0531456
3.629e-05,-0.0531674
3.632e-05,-0.0533043
3.635e-05,-0.0531517
3.638e-05,-0.0531916
3.642e-05,-0.0530948
3.645e-05,-0.0531262
3.648e-05,-0.0531154
3.651e-05,-0.053079
3.654e-05,-0.0531311
3.658e-05,-0.0530609
3.661e-05,-0.0530306
3.664e-05,-0.0531166
3.667e-05,-0.0529531
3.670e-05,-0.0530185
3.674e-05,-0.0530681
3.677e-05,-0.0529301
3.680e-05,-0.052941
3.683e-05,-0.053027
3.686e-05,-0.0528332
3.690e-05,-0.052993
3.693e-05,-0.0529386
3.696e-05,-0.0528344
3.699e-05,-0.052987
3.702e-05,-0.0529216
3.706e-05,-0.0527957
3.709e-05,-0.0529434
3.712e-05,-0.0528889
3.715e-05,-0.0529349
3.718e-05,-0.0529313
3.722e-05,-0.0529204
3.725e-05,-0.052815
3.728e-05,-0.0529301
3.731e-05,-0.0529628
3.734e-05,-0.0528635
3.738e-05,-0.0529688
3.741e-05,-0.0529107
3.744e-05,-0.0529955
3.747e-05,-0.0529797
3.750e-05,-0.0528538
3.754e-05,-0.0529107
3.757e-05,-0.0529422
3.760e-05,-0.0529204
3.763e-05,-0.0528865
3.766e-05,-0.0528804
3.770e-05,-0.0528865
3.773e-05,-0.0528041
3.776e-05,-0.0527581
3.779e-05,-0.0528187
3.782e-05,-0.0528829
3.786e-05,-0.0528175
3.789e-05,-0.0527279
3.792e-05,-0.052872
3.795e-05,-0.0527436
3.798e-05,-0.0526964
3.802e-05,-0.0527799
3.805e-05,-0.0528005
3.808e-05,-0.0526504
3.811e-05,-0.0526576
3.814e-05,-0.0527521
3.818e-05,-0.052677
3.821e-05,-0.0527751
3.824e-05,-0.05266
3.827e-05,-0.0525959
3.830e-05,-0.052763
3.834e-05,-0.0526564
3.837e-05,-0.0526806
3.840e-05,-0.0527605
3.843e-05,-0.0526504
3.846e-05,-0.0528284
3.850e-05,-0.0527957
3.853e-05,-0.0527024
3.856e-05,-0.0527242
3.859e-05,-0.0526637
3.862e-05,-0.052746
3.866e-05,-0.0527775
3.869e-05,-0.0527375
3.872e-05,-0.0527593
3.875e-05,-0.0527109
3.878e-05,-0.0527024
3.882e-05,-0.0527303
3.885e-05,-0.0527569
3.888e-05,-0.0527593
3.891e-05,-0.0527945
3.894e-05,-0.052763
3.898e-05,-0.0528344
3.901e-05,-0.0526939
3.904e-05,-0.0527799
3.907e-05,-0.0528453
3.910e-05,-0.0526685
3.914e-05,-0.0527836
3.917e-05,-0.0527472
3.920e-05,-0.0527327
3.923e-05,-0.0526346
3.926e-05,-0.0528332
3.930e-05,-0.0526576
3.933e-05,-0.0526964
3.936e-05,-0.0527254
3.939e-05,-0.0526346
3.942e-05,-0.0528526
3.946e-05,-0.0526334
3.949e-05,-0.0527036
3.952e-05,-0.0528489
3.955e-05,-0.0526939
3.958e-05,-0.0528598
3.962e-05,-0.052838
3.965e-05,-0.0526806
3.968e-05,-0.0527932
3.971e-05,-0.0528768
3.974e-05,-0.0529034
3.978e-05,-0.0527993
3.981e-05,-0.0527908
3.984e-05,-0.0527775
3.987e-05,-0.0528005
3.990e-05,-0.0528271
3.994e-05,-0.0528974
3.997e-05,-0.0527945
4.000e-05,-0.052855
4.003e-05,-0.0528102
4.006e-05,-0.0528271
4.010e-05,-0.052924
4.013e-05,-0.0528502
4.016e-05,-0.0528175
4.019e-05,-0.0528005
4.022e-05,-0.0528635
4.026e-05,-0.0528913
4.029e-05,-0.0528308
4.032e-05,-0.0528054
4.035e-05,-0.0528296
4.038e-05,-0.0528368
4.042e-05,-0.0527545
4.045e-05,-0.0528683
4.048e-05,-0.0528259
4.051e-05,-0.0527775
4.054e-05,-0.0528841
4.058e-05,-0.0528138
4.061e-05,-0.0528671
4.064e-05,-0.052901
4.067e-05,-0.0528211
4.070e-05,-0.0528126
4.074e-05,-0.0528041
4.077e-05,-0.0528538
4.080e-05,-0.0528175
4.083e-05,-0.0528937
4.086e-05,-0.052769
4.090e-05,-0.0527569
4.093e-05,-0.0528598
4.096e-05,-0.052809
4.099e-05,-0.0527981
4.102e-05,-0.0528114
4.106e-05,-0.0527012
4.109e-05,-0.0527872
4.112e-05,-0.0527666
4.115e-05,-0.0526528
4.118e-05,-0.0528102
4.122e-05,-0.052763
4.125e-05,-0.0527036
4.128e-05,-0.0527182
4.131e-05,-0.0526891
4.134e-05,-0.0528187
4.138e-05,-0.0526697
4.141e-05,-0.0527266
4.144e-05,-0.0526855
4.147e-05,-0.0527157
4.150e-05,-0.0526758
4.154e-05,-0.0526697
4.157e-05,-0.0527678
4.160e-05,-0.052717
4.163e-05,-0.05274
4.166e-05,-0.052683
4.170e-05,-0.0527533
4.173e-05,-0.0527799
4.176e-05,-0.0528005
4.179e-05,-0.0527472
4.182e-05,-0.0526201
4.186e-05,-0.0526976
4.189e-05,-0.0527957
4.192e-05,-0.0526939
4.195e-05,-0.0526528
4.198e-05,-0.0527521
4.202e-05,-0.0526516
4.205e-05,-0.0527945
4.208e-05,-0.0526867
4.211e-05,-0.0528138
4.214e-05,-0.0526697
4.218e-05,-0.0527702
4.221e-05,-0.0526903
4.224e-05,-0.0527618
4.227e-05,-0.0527436
4.230e-05,-0.0527351
4.234e-05,-0.0527751
4.237e-05,-0.0527145
4.240e-05,-0.0527884
4.243e-05,-0.0529143
4.246e-05,-0.05266
4.250e-05,-0.0527739
4.253e-05,-0.0527557
4.256e-05,-0.0527279
4.259e-05,-0.0528029
4.262e-05,-0.0527387
4.266e-05,-0.0526927
4.269e-05,-0.0527787
4.272e-05,-0.0527739
4.275e-05,-0.0527061
4.278e-05,-0.0527787
4.282e-05,-0.0527981
4.285e-05,-0.0526479
4.288e-05,-0.0528393
4.291e-05,-0.0527424
4.294e-05,-0.052746
4.298e-05,-0.0527206
4.301e-05,-0.0526467
4.304e-05,-0.0526927
4.307e-05,-0.0526019
4.310e-05,-0.0527666
4.314e-05,-0.0526915
4.317e-05,-0.0527618
4.320e-05,-0.0527448
4.323e-05,-0.0524748
4.326e-05,-0.0526528
4.330e-05,-0.0527702
4.333e-05,-0.0526201
4.336e-05,-0.0526855
4.339e-05,-0.0525147
4.342e-05,-0.0526734
4.346e-05,-0.0526213
4.349e-05,-0.0526213
4.352e-05,-0.0527545
4.355e-05,-0.052614
4.358e-05,-0.0525983
4.362e-05,-0.0527375
4.365e-05,-0.0526612
4.368e-05,-0.0526806
4.371e-05,-0.0526867
4.374e-05,-0.0526491
4.378e-05,-0.0525765
4.381e-05,-0.0527012
4.384e-05,-0.0526177
4.387e-05,-0.0525765
4.390e-05,-0.052677
4.394e-05,-0.0527702
4.397e-05,-0.0527945
4.400e-05,-0.0526455
4.403e-05,-0.0527157
4.406e-05,-0.0526855
4.410e-05,-0.0527036
4.413e-05,-0.0526237
4.416e-05,-0.0528356
4.419e-05,-0.0525729
4.422e-05,-0.0527145
4.426e-05,-0.0527642
4.429e-05,-0.0524929
4.432e-05,-0.0526661
4.435e-05,-0.052723
4.438e-05,-0.0526055
4.442e-05,-0.0527375
4.445e-05,-0.052562
4.448e-05,-0.0526612
4.451e-05,-0.0526055
4.454e-05,-0.0527496
4.458e-05,-0.0526843
4.461e-05,-0.0526128
4.464e-05,-0.0527339
4.467e-05,-0.0526867
4.470e-05,-0.0528066
4.474e-05,-0.0526915
4.477e-05,-0.0527545
4.480e-05,-0.0527496
4.483e-05,-0.0525256
4.486e-05,-0.0529361
4.490e-05,-0.0526588
4.493e-05,-0.0527654
4.496e-05,-0.0527605
4.499e-05,-0.0527206
4.502e-05,-0.0526697
4.506e-05,-0.052815
4.509e-05,-0.0527593
4.512e-05,-0.0526952
4.515e-05,-0.0527448
4.518e-05,-0.0527303
4.522e-05,-0.0526564
4.525e-05,-0.0527932
4.528e-05,-0.0527593
4.531e-05,-0.0526625
4.534e-05,-0.0526431
4.538e-05,-0.0526952
4.541e-05,-0.052746
4.544e-05,-0.052832
4.547e-05,-0.0528005
4.550e-05,-0.0526055
4.554e-05,-0.0526334
4.557e-05,-0.0526855
4.560e-05,-0.0527605
4.563e-05,-0.0526116
4.566e-05,-0.0527654
4.570e-05,-0.0527
4.573e-05,-0.0526649
4.576e-05,-0.0527509
4.579e-05,-0.052683
4.582e-05,-0.0526261
4.586e-05,-0.0526734
4.589e-05,-0.0526806
4.592e-05,-0.0525692
4.595e-05,-0.052683
4.598e-05,-0.0525498
4.602e-05,-0.0526358
4.605e-05,-0.0526746
4.608e-05,-0.0525099
4.611e-05,-0.0526419
4.614e-05,-0.0526273
4.618e-05,-0.0525813
4.621e-05,-0.0525498
4.624e-05,-0.0525511
4.627e-05,-0.0525934
4.630e-05,-0.0526128
4.634e-05,-0.0524518
4.637e-05,-0.0525305
4.640e-05,-0.052522
4.643e-05,-0.0524869
4.646e-05,-0.0525135
4.650e-05,-0.052637
4.653e-05,-0.052522
4.656e-05,-0.0525317
4.659e-05,-0.0525389
4.662e-05,-0.0525087
4.666e-05,-0.0525765
4.669e-05,-0.0526685
4.672e-05,-0.0525232
4.675e-05,-0.0524614
4.678e-05,-0.052499
4.682e-05,-0.0525014
4.685e-05,-0.0525232
4.688e-05,-0.0525184
4.691e-05,-0.0524699
4.694e-05,-0.0525402
4.698e-05,-0.0525196
4.701e-05,-0.0525196
4.704e-05,-0.0525595
4.707e-05,-0.0526164
4.710e-05,-0.0524106
4.714e-05,-0.052545
4.717e-05,-0.0525438
4.720e-05,-0.0525196
4.723e-05,-0.0525135
4.726e-05,-0.0525087
4.730e-05,-0.052499
4.733e-05,-0.0524917
4.736e-05,-0.0525026
4.739e-05,-0.0525571
4.742e-05,-0.0524566
4.746e-05,-0.0524445
4.749e-05,-0.052499
4.752e-05,-0.0525474
4.755e-05,-0.0525656
4.758e-05,-0.0525486
4.762e-05,-0.0525317
4.765e-05,-0.0525692
4.768e-05,-0.0525971
4.771e-05,-0.0526649
4.774e-05,-0.0525535
4.778e-05,-0.0527121
4.781e-05,-0.0526128
4.784e-05,-0.0526189
4.787e-05,-0.0528017
4.790e-05,-0.0526298
4.794e-05,-0.0528441
4.797e-05,-0.0527157
4.800e-05,-0.0526867
4.803e-05,-0.0528465
4.806e-05,-0.0528865
4.810e-05,-0.0528514
4.813e-05,-0.0528962
4.816e-05,-0.0527739
4.819e-05,-0.0528732
4.822e-05,-0.0529918
4.826e-05,-0.0528223
4.829e-05,-0.0529325
4.832e-05,-0.05297
4.835e-05,-0.0529143
4.838e-05,-0.0530257
4.842e-05,-0.0530693
4.845e-05,-0.052918
4.848e-05,-0.0530887
4.851e-05,-0.0530148
4.854e-05,-0.0530427
4.858e-05,-0.0530342
4.861e-05,-0.0530887
4.864e-05,-0.0530342
4.867e-05,-0.0529386
4.870e-05,-0.0529446
4.874e-05,-0.0530354
4.877e-05,-0.053033
4.880e-05,-0.0530451
4.883e-05,-0.0530839
4.886e-05,-0.0529507
4.890e-05,-0.0529918
4.893e-05,-0.0529858
4.896e-05,-0.0530451
4.899e-05,-0.0530052
4.902e-05,-0.0529531
4.906e-05,-0.0529422
4.909e-05,-0.0529495
4.912e-05,-0.0528889
4.915e-05,-0.052947
4.918e-05,-0.0528453
4.922e-05,-0.0528114
4.925e-05,-0.0528829
4.928e-05,-0.0529216
4.931e-05,-0.0527896
4.934e-05,-0.052872
4.938e-05,-0.0530257
4.941e-05,-0.0527109
4.944e-05,-0.0527799
4.947e-05,-0.0529591
4.950e-05,-0.0527993
4.954e-05,-0.0528235
4.957e-05,-0.052924
4.960e-05,-0.0528066
4.963e-05,-0.0527945
4.966e-05,-0.0528804
4.970e-05,-0.0528223
4.973e-05,-0.0528247
4.976e-05,-0.0527327
4.979e-05,-0.0527339
4.982e-05,-0.0528296
4.986e-05,-0.0528417
4.989e-05,-0.0527751
4.992e-05,-0.0526661
4.995e-05,-0.0527387
4.998e-05,-0.0526346
5.002e-05,-0.0526976
5.005e-05,-0.0527739
5.008e-05,-0.0526116
5.011e-05,-0.0525995
5.014e-05,-0.0525753
5.018e-05,-0.0526988
5.021e-05,-0.0525886
5.024e-05,-0.052591
5.027e-05,-0.0525632
5.030e-05,-0.0525171
5.034e-05,-0.0525946
5.037e-05,-0.0525014
5.040e-05,-0.052591
5.043e-05,-0.0525014
5.046e-05,-0.0524832
5.050e-05,-0.052499
5.053e-05,-0.0525002
5.056e-05,-0.0525559
5.059e-05,-0.0525922
5.062e-05,-0.0524384
5.066e-05,-0.0525062
5.069e-05,-0.0526213
5.072e-05,-0.0525184
5.075e-05,-0.0525365
5.078e-05,-0.052631
5.082e-05,-0.0525329
5.085e-05,-0.0526467
5.088e-05,-0.0525692
5.091e-05,-0.0526322
5.094e-05,-0.0527157
5.098e-05,-0.0526746
5.101e-05,-0.0525644
5.104e-05,-0.0527521
5.107e-05,-0.052683
5.110e-05,-0.0526891
5.114e-05,-0.0527751
5.117e-05,-0.0525583
5.120e-05,-0.0526939
5.123e-05,-0.052809
5.126e-05,-0.0524469
5.130e-05,-0.0526419
5.133e-05,-0.0527109
5.136e-05,-0.0525789
5.139e-05,-0.0526031
5.142e-05,-0.0526661
5.146e-05,-0.0525886
5.149e-05,-0.052614
5.152e-05,-0.0525414
5.155e-05,-0.0526346
5.158e-05,-0.0525934
5.162e-05,-0.0525559
5.165e-05,-0.0526152
5.168e-05,-0.0526116
5.171e-05,-0.0525825
5.174e-05,-0.0525365
5.178e-05,-0.0526225
5.181e-05,-0.0525898
5.184e-05,-0.0525426
5.187e-05,-0.0525995
5.190e-05,-0.0524893
5.194e-05,-0.052631
5.197e-05,-0.0527145
5.200e-05,-0.0523961
5.203e-05,-0.052545
5.206e-05,-0.0526673
5.210e-05,-0.052522
5.213e-05,-0.0525813
5.216e-05,-0.0526346
5.219e-05,-0.052585
5.222e-05,-0.052459
5.226e-05,-0.0526043
5.229e-05,-0.0524263
5.232e-05,-0.052683
5.235e-05,-0.0524954
5.238e-05,-0.052459
5.242e-05,-0.0525511
5.245e-05,-0.0524251
5.248e-05,-0.0525922
5.251e-05,-0.0525971
5.254e-05,-0.0525353
5.258e-05,-0.0525498
5.261e-05,-0.0523985
5.264e-05,-0.0524966
5.267e-05,-0.0525765
5.270e-05,-0.0525256
5.274e-05,-0.052459
5.277e-05,-0.0525014
5.280e-05,-0.0523767
5.283e-05,-0.0524469
5.286e-05,-0.0525268
5.290e-05,-0.0524505
5.293e-05,-0.0524614
5.296e-05,-0.0525317
5.299e-05,-0.052476
5.302e-05,-0.0525801
5.306e-05,-0.052654
5.309e-05,-0.0524542
5.312e-05,-0.0525983
5.315e-05,-0.0526104
5.318e-05,-0.0525111
5.322e-05,-0.0525813
5.325e-05,-0.0526782
5.328e-05,-0.0525523
5.331e-05,-0.0525389
5.334e-05,-0.0527085
5.338e-05,-0.0525099
5.341e-05,-0.0525983
5.344e-05,-0.0526927
5.347e-05,-0.0524954
5.350e-05,-0.0526407
5.354e-05,-0.0525716
5.357e-05,-0.0525305
5.360e-05,-0.0526455
5.363e-05,-0.0525062
5.366e-05,-0.0525571
5.370e-05,-0.0525741
5.373e-05,-0.0526455
5.376e-05,-0.0525607
5.379e-05,-0.0526007
5.382e-05,-0.0525983
5.386e-05,-0.0524663
5.389e-05,-0.0526431
5.392e-05,-0.0526952
5.395e-05,-0.0524275
5.398e-05,-0.0524941
5.402e-05,-0.0525886
5.405e-05,-0.0525135
5.408e-05,-0.0526346
5.411e-05,-0.052522
5.414e-05,-0.0526467
5.418e-05,-0.0524663
5.421e-05,-0.0524336
5.424e-05,-0.0526346
5.427e-05,-0.0526564
5.430e-05,-0.0526043
5.434e-05,-0.0526273
5.437e-05,-0.0525535
5.440e-05,-0.0526043
5.443e-05,-0.052522
5.446e-05,-0.0526237
5.450e-05,-0.0526298
5.453e-05,-0.0525389
5.456e-05,-0.0526031
5.459e-05,-0.0525583
5.462e-05,-0.0526068
5.466e-05,-0.0526043
5.469e-05,-0.0524893
5.472e-05,-0.0526564
5.475e-05,-0.052476
5.478e-05,-0.0525995
5.482e-05,-0.0526189
5.485e-05,-0.0526927
5.488e-05,-0.0525099
5.491e-05,-0.0525474
5.494e-05,-0.0525741
5.498e-05,-0.0525486
5.501e-05,-0.052568
5.504e-05,-0.0526358
5.507e-05,-0.052545
5.510e-05,-0.0525341
5.514e-05,-0.0525995
5.517e-05,-0.0525898
5.520e-05,-0.0525111
5.523e-05,-0.0525256
5.526e-05,-0.0525644
5.530e-05,-0.0524869
5.533e-05,-0.0525692
5.536e-05,-0.0525874
5.539e-05,-0.0524251
5.542e-05,-0.0525171
5.546e-05,-0.052505
5.549e-05,-0.0524808
5.552e-05,-0.0525813
5.555e-05,-0.0524845
5.558e-05,-0.0525498
5.562e-05,-0.0525099
5.565e-05,-0.0525305
5.568e-05,-0.0525632
5.571e-05,-0.0525389
5.574e-05,-0.0525825
5.578e-05,-0.0525729
5.581e-05,-0.0524493
5.584e-05,-0.0525934
5.587e-05,-0.0526491
5.590e-05,-0.0526467
5.594e-05,-0.0525595
5.597e-05,-0.0525607
5.600e-05,-0.0525389
5.603e-05,-0.0526104
5.606e-05,-0.0526758
5.610e-05,-0.0526068
5.613e-05,-0.0526879
5.616e-05,-0.0526576
5.619e-05,-0.0525837
5.622e-05,-0.0527157
5.626e-05,-0.0526322
5.629e-05,-0.0524687
5.632e-05,-0.0525777
5.635e-05,-0.0525765
5.638e-05,-0.0525644
5.642e-05,-0.0526649
5.645e-05,-0.0525837
5.648e-05,-0.0525075
5.651e-05,-0.0526201
5.654e-05,-0.052436
5.658e-05,-0.0525595
5.661e-05,-0.0526395
5.664e-05,-0.052522
5.667e-05,-0.0526092
5.670e-05,-0.0526177
5.674e-05,-0.052585
5.677e-05,-0.0527206
5.680e-05,-0.0525656
5.683e-05,-0.0525438
5.686e-05,-0.052568
5.690e-05,-0.0525632
5.693e-05,-0.0525874
5.696e-05,-0.052631
5.699e-05,-0.0525547
5.702e-05,-0.0525474
5.706e-05,-0.0526261
5.709e-05,-0.0524954
5.712e-05,-0.0525317
5.715e-05,-0.0526758
5.718e-05,-0.0524179
5.722e-05,-0.0526697
5.725e-05,-0.0526237
5.728e-05,-0.0525862
5.731e-05,-0.0525365
5.734e-05,-0.0525837
5.738e-05,-0.0526055
5.741e-05,-0.0526419
5.744e-05,-0.0527315
5.747e-05,-0.0526734
5.750e-05,-0.0526443
5.754e-05,-0.0526286
5.757e-05,-0.0525995
5.760e-05,-0.0527133
5.763e-05,-0.0527109
5.766e-05,-0.0526891
5.770e-05,-0.0527351
5.773e-05,-0.0526286
5.776e-05,-0.0526879
5.779e-05,-0.0527036
5.782e-05,-0.0527957
5.786e-05,-0.0527048
5.789e-05,-0.0527133
5.792e-05,-0.0527351
5.795e-05,-0.0527351
5.798e-05,-0.0528271
5.802e-05,-0.0528066
5.805e-05,-0.0526273
5.808e-05,-0.0527545
5.811e-05,-0.0526746
5.814e-05,-0.0526201
5.818e-05,-0.0528223
5.821e-05,-0.0526467
5.824e-05,-0.0526467
5.827e-05,-0.052763
5.830e-05,-0.0526152
5.834e-05,-0.0526104
5.837e-05,-0.0526806
5.840e-05,-0.0525801
5.843e-05,-0.0527448
5.846e-05,-0.0526528
5.850e-05,-0.0526649
5.853e-05,-0.0526734
5.856e-05,-0.0525244
5.859e-05,-0.0526249
5.862e-05,-0.0525801
5.866e-05,-0.0526939
5.869e-05,-0.0527097
5.872e-05,-0.0526152
5.875e-05,-0.052654
5.878e-05,-0.0527048
5.882e-05,-0.0526213
5.885e-05,-0.0526516
5.888e-05,-0.0526261
5.891e-05,-0.0526346
5.894e-05,-0.0525862
5.898e-05,-0.0526564
5.901e-05,-0.0526649
5.904e-05,-0.0526879
5.907e-05,-0.0527642
5.910e-05,-0.0525729
5.914e-05,-0.0526818
5.917e-05,-0.0525692
5.920e-05,-0.0526721
5.923e-05,-0.0527993
5.926e-05,-0.0526116
5.930e-05,-0.0527509
5.933e-05,-0.0526927
5.936e-05,-0.0526564
5.939e-05,-0.0527351
5.942e-05,-0.0527908
5.946e-05,-0.0527375
5.949e-05,-0.0527387
5.952e-05,-0.0527642
5.955e-05,-0.0528502
5.958e-05,-0.0527836
5.962e-05,-0.0528211
5.965e-05,-0.0528308
5.968e-05,-0.0527303
5.971e-05,-0.0528477
5.974e-05,-0.0527472
5.978e-05,-0.0528562
5.981e-05,-0.0529349
5.984e-05,-0.052769
5.987e-05,-0.0527714
5.990e-05,-0.0528502
5.994e-05,-0.0527993
5.997e-05,-0.0528853
6.000e-05,-0.052763
6.003e-05,-0.0527678
6.006e-05,-0.0528017
6.010e-05,-0.0527194
6.013e-05,-0.0527993
6.016e-05,-0.0527412
6.019e-05,-0.0527024
6.022e-05,-0.0527896
6.026e-05,-0.0527291
6.029e-05,-0.0527884
6.032e-05,-0.0526443
6.035e-05,-0.0527581
6.038e-05,-0.0527412
6.042e-05,-0.0526407
6.045e-05,-0.0526528
6.048e-05,-0.0527048
6.051e-05,-0.0526213
6.054e-05,-0.0526746
6.058e-05,-0.052717
6.061e-05,-0.0526273
6.064e-05,-0.0526479
6.067e-05,-0.0526649
6.070e-05,-0.0525789
6.074e-05,-0.05266
6.077e-05,-0.0526552
6.080e-05,-0.0526419
6.083e-05,-0.0526431
6.086e-05,-0.0526709
6.090e-05,-0.052585
6.093e-05,-0.0525898
6.096e-05,-0.0526382
6.099e-05,-0.052654
6.102e-05,-0.0526709
6.106e-05,-0.0526625
6.109e-05,-0.0525946
6.112e-05,-0.0525607
6.115e-05,-0.0526576
6.118e-05,-0.0525535
6.122e-05,-0.0527593
6.125e-05,-0.0526818
6.128e-05,-0.0525389
6.131e-05,-0.052683
6.134e-05,-0.0526964
6.138e-05,-0.0526903
6.141e-05,-0.0526504
6.144e-05,-0.0525171
6.147e-05,-0.0526286
6.150e-05,-0.0526637
6.154e-05,-0.0526576
6.157e-05,-0.0526891
6.160e-05,-0.0525656
6.163e-05,-0.0526964
6.166e-05,-0.0527412
6.170e-05,-0.0525353
6.173e-05,-0.0526612
6.176e-05,-0.0526625
6.179e-05,-0.0526298
6.182e-05,-0.0525014
6.186e-05,-0.052654
6.189e-05,-0.052637
6.192e-05,-0.0525305
6.195e-05,-0.0525753
6.198e-05,-0.052585
6.202e-05,-0.0526467
