Model,TBS1102C
Firmware Version,v2015-08-04-prequal4ch70_v1.3

Point Format,Y
Horizontal Units,S
Horizontal Scale,2e-06
Sample Interval,1.6e-08
Filter Frequency,2e+08
Record Length,2000
Gating,0.0% to 100.0%
Probe Attenuation,1
Vertical Units,V
Vertical Offset,0
Vertical Scale,0.00835
Label,
TIME,CH1
1.890e-05,-0.0580729
1.891e-05,-0.0582726
1.893e-05,-0.0582008
1.894e-05,-0.0582543
1.896e-05,-0.058206
1.898e-05,-0.0581069
1.899e-05,-0.0581512
1.901e-05,-0.0582647
1.902e-05,-0.0583195
1.904e-05,-0.0582817
1.906e-05,-0.0582282
1.907e-05,-0.0580729
1.909e-05,-0.0582021
1.910e-05,-0.0582269
1.912e-05,-0.0584043
1.914e-05,-0.0581838
1.915e-05,-0.0582491
1.917e-05,-0.0581799
1.918e-05,-0.0583091
1.920e-05,-0.0582739
1.922e-05,-0.0582282
1.923e-05,-0.0582426
1.925e-05,-0.0582112
1.926e-05,-0.058193
1.928e-05,-0.0584096
1.930e-05,-0.0582517
1.931e-05,-0.0582426
1.933e-05,-0.0581682
1.934e-05,-0.0583417
1.936e-05,-0.0582386
1.938e-05,-0.0582895
1.939e-05,-0.0582426
1.941e-05,-0.058253
1.942e-05,-0.0581577
1.944e-05,-0.0583221
1.946e-05,-0.0582634
1.947e-05,-0.0582987
1.949e-05,-0.0581225
1.950e-05,-0.0581577
1.952e-05,-0.0581891
1.954e-05,-0.0582021
1.955e-05,-0.0582152
1.957e-05,-0.0582778
1.958e-05,-0.058163
1.960e-05,-0.0582765
1.962e-05,-0.0580964
1.963e-05,-0.0581056
1.965e-05,-0.0580742
1.966e-05,-0.0581799
1.968e-05,-0.0582582
1.970e-05,-0.0582269
1.971e-05,-0.0581773
1.973e-05,-0.0579947
1.974e-05,-0.0581304
1.976e-05,-0.0581264
1.978e-05,-0.0582047
1.979e-05,-0.058133
1.981e-05,-0.0582243
1.982e-05,-0.0581577
1.984e-05,-0.0581786
1.986e-05,-0.0582399
1.987e-05,-0.0582073
1.989e-05,-0.0581356
1.990e-05,-0.0582021
1.992e-05,-0.0581838
1.994e-05,-0.0582073
1.995e-05,-0.0581512
1.997e-05,-0.0582452
1.998e-05,-0.0581069
2.000e-05,-0.0582739
2.002e-05,-0.0581369
2.003e-05,-0.0582165
2.005e-05,-0.0581108
2.006e-05,-0.0581499
2.008e-05,-0.0581721
2.010e-05,-0.058253
2.011e-05,-0.058129
2.013e-05,-0.058116
2.014e-05,-0.0581851
2.016e-05,-0.0582491
2.018e-05,-0.0582099
2.019e-05,-0.0581577
2.021e-05,-0.0581043
2.022e-05,-0.0582465
2.024e-05,-0.058163
2.026e-05,-0.0582478
2.027e-05,-0.0581343
2.029e-05,-0.0582112
2.030e-05,-0.0580899
2.032e-05,-0.0581486
2.034e-05,-0.0582426
2.035e-05,-0.0582295
2.037e-05,-0.0582817
2.038e-05,-0.0581538
2.040e-05,-0.0580521
2.042e-05,-0.0581082
2.043e-05,-0.0583234
2.045e-05,-0.0582152
2.046e-05,-0.058163
2.048e-05,-0.0580886
2.050e-05,-0.0581251
2.051e-05,-0.0582817
2.053e-05,-0.0582256
2.054e-05,-0.058176
2.056e-05,-0.0580756
2.058e-05,-0.0581173
2.059e-05,-0.0582217
2.061e-05,-0.0581069
2.062e-05,-0.0582686
2.064e-05,-0.0580756
2.066e-05,-0.0581708
2.067e-05,-0.0581343
2.069e-05,-0.0581238
2.070e-05,-0.0582752
2.072e-05,-0.0581695
2.074e-05,-0.0581773
2.075e-05,-0.0581969
2.077e-05,-0.0580938
2.078e-05,-0.058129
2.080e-05,-0.0580677
2.082e-05,-0.0581538
2.083e-05,-0.0581121
2.085e-05,-0.0581369
2.086e-05,-0.0580547
2.088e-05,-0.0580847
2.090e-05,-0.0581617
2.091e-05,-0.058266
2.093e-05,-0.0580703
2.094e-05,-0.0580625
2.096e-05,-0.0580534
2.098e-05,-0.058116
2.099e-05,-0.0581969
2.101e-05,-0.058129
2.102e-05,-0.0582191
2.104e-05,-0.0580625
2.106e-05,-0.0581225
2.107e-05,-0.0581786
2.109e-05,-0.0582295
2.110e-05,-0.0581982
2.112e-05,-0.0580442
2.114e-05,-0.0581317
2.115e-05,-0.0581304
2.117e-05,-0.0581421
2.118e-05,-0.0581186
2.120e-05,-0.0580834
2.122e-05,-0.0581538
2.123e-05,-0.0581799
2.125e-05,-0.0581395
2.126e-05,-0.0582647
2.128e-05,-0.0583104
2.130e-05,-0.0581956
2.131e-05,-0.0581812
2.133e-05,-0.0581512
2.134e-05,-0.0581617
2.136e-05,-0.0582569
2.138e-05,-0.0582543
2.139e-05,-0.0581682
2.141e-05,-0.0581473
2.142e-05,-0.0582243
2.144e-05,-0.0581878
2.146e-05,-0.0583352
2.147e-05,-0.0582439
2.149e-05,-0.0582073
2.150e-05,-0.0581891
2.152e-05,-0.0581851
2.154e-05,-0.058283
2.155e-05,-0.0583404
2.157e-05,-0.0582843
2.158e-05,-0.0581577
2.160e-05,-0.0581577
2.162e-05,-0.0581669
2.163e-05,-0.0582921
2.165e-05,-0.0583652
2.166e-05,-0.0582752
2.168e-05,-0.0582869
2.170e-05,-0.0582595
2.171e-05,-0.0583561
2.173e-05,-0.0583626
2.174e-05,-0.0583404
2.176e-05,-0.0583365
2.178e-05,-0.0582504
2.179e-05,-0.0582908
2.181e-05,-0.0583143
2.182e-05,-0.0581812
2.184e-05,-0.0582412
2.186e-05,-0.0583521
2.187e-05,-0.0583156
2.189e-05,-0.0584422
2.190e-05,-0.0582739
2.192e-05,-0.0582556
2.194e-05,-0.0583221
2.195e-05,-0.058343
2.197e-05,-0.0584226
2.198e-05,-0.05827
2.200e-05,-0.0582934
2.202e-05,-0.0582908
2.203e-05,-0.0583195
2.205e-05,-0.0583822
2.206e-05,-0.0582021
2.208e-05,-0.0583508
2.210e-05,-0.058253
2.211e-05,-0.0583208
2.213e-05,-0.0583587
2.214e-05,-0.0583339
2.216e-05,-0.0583313
2.218e-05,-0.0582556
2.219e-05,-0.0582987
2.221e-05,-0.0582334
2.222e-05,-0.0583548
2.224e-05,-0.0583952
2.226e-05,-0.05842
2.227e-05,-0.0583
2.229e-05,-0.0581617
2.230e-05,-0.0584226
2.232e-05,-0.0584082
2.234e-05,-0.0584578
2.235e-05,-0.058206
2.237e-05,-0.0583026
2.238e-05,-0.0584069
2.240e-05,-0.0583952
2.242e-05,-0.0583521
2.243e-05,-0.0582465
2.245e-05,-0.0583169
2.246e-05,-0.0584069
2.248e-05,-0.0583809
2.250e-05,-0.0582217
2.251e-05,-0.0582608
2.253e-05,-0.0581564
2.254e-05,-0.0583626
2.256e-05,-0.0583065
2.258e-05,-0.0583717
2.259e-05,-0.0582817
2.261e-05,-0.0582099
2.262e-05,-0.0582765
2.264e-05,-0.0582752
2.266e-05,-0.0583404
2.267e-05,-0.0583378
2.269e-05,-0.0582569
2.270e-05,-0.0582269
2.272e-05,-0.0581786
2.274e-05,-0.0584069
2.275e-05,-0.0582765
2.277e-05,-0.0582765
2.278e-05,-0.0581891
2.280e-05,-0.0582974
2.282e-05,-0.0582517
2.283e-05,-0.0582817
2.285e-05,-0.0582465
2.286e-05,-0.0582934
2.288e-05,-0.0583326
2.290e-05,-0.0583326
2.291e-05,-0.0582491
2.293e-05,-0.058283
2.294e-05,-0.0582334
2.296e-05,-0.0583326
2.298e-05,-0.0582791
2.299e-05,-0.0583182
2.301e-05,-0.0581786
2.302e-05,-0.0583391
2.304e-05,-0.0583339
2.306e-05,-0.0583313
2.307e-05,-0.0583104
2.309e-05,-0.0583169
2.310e-05,-0.0583809
2.312e-05,-0.0583169
2.314e-05,-0.0583352
2.315e-05,-0.058236
2.317e-05,-0.0583521
2.318e-05,-0.0584082
2.320e-05,-0.0584043
2.322e-05,-0.0583835
2.323e-05,-0.0582478
2.325e-05,-0.0583535
2.326e-05,-0.0583861
2.328e-05,-0.0583652
2.330e-05,-0.0583482
2.331e-05,-0.05827
2.333e-05,-0.0584591
2.334e-05,-0.0583848
2.336e-05,-0.0584917
2.338e-05,-0.0583169
2.339e-05,-0.0583965
2.341e-05,-0.0584539
2.342e-05,-0.0583952
2.344e-05,-0.0583952
2.346e-05,-0.0584578
2.347e-05,-0.0583835
2.349e-05,-0.0585074
2.350e-05,-0.058313
2.352e-05,-0.0584657
2.354e-05,-0.0583182
2.355e-05,-0.0584004
2.357e-05,-0.0584474
2.358e-05,-0.0584148
2.360e-05,-0.0585191
2.362e-05,-0.0584356
2.363e-05,-0.0583143
2.365e-05,-0.0585322
2.366e-05,-0.058433
2.368e-05,-0.0585961
2.370e-05,-0.0584761
2.371e-05,-0.0585178
2.373e-05,-0.0583717
2.374e-05,-0.0586248
2.376e-05,-0.0585244
2.378e-05,-0.0584461
2.379e-05,-0.0584539
2.381e-05,-0.0584409
2.382e-05,-0.0584996
2.384e-05,-0.0586222
2.386e-05,-0.0584578
2.387e-05,-0.0585322
2.389e-05,-0.0583822
2.390e-05,-0.0584617
2.392e-05,-0.0585518
2.394e-05,-0.0586105
2.395e-05,-0.0585831
2.397e-05,-0.0584591
2.398e-05,-0.0584278
2.400e-05,-0.0584722
2.402e-05,-0.0586796
2.403e-05,-0.0585413
2.405e-05,-0.0584513
2.406e-05,-0.0583822
2.408e-05,-0.0584957
2.410e-05,-0.0585635
2.411e-05,-0.058634
2.413e-05,-0.0585609
2.414e-05,-0.0584291
2.416e-05,-0.0584096
2.418e-05,-0.0584644
2.419e-05,-0.0586457
2.421e-05,-0.0586444
2.422e-05,-0.0584852
2.424e-05,-0.0584565
2.426e-05,-0.0584291
2.427e-05,-0.058587
2.429e-05,-0.0585465
2.430e-05,-0.0585322
2.432e-05,-0.05842
2.434e-05,-0.05839
2.435e-05,-0.05839
2.437e-05,-0.0585191
2.438e-05,-0.0584748
2.440e-05,-0.0584526
2.442e-05,-0.0584735
2.443e-05,-0.0584761
2.445e-05,-0.0584526
2.446e-05,-0.0584709
2.448e-05,-0.058433
2.450e-05,-0.0584839
2.451e-05,-0.0584265
2.453e-05,-0.05848
2.454e-05,-0.0583182
2.456e-05,-0.0583756
2.458e-05,-0.0583495
2.459e-05,-0.0584565
2.461e-05,-0.0584356
2.462e-05,-0.0584135
2.464e-05,-0.0582974
2.466e-05,-0.0583782
2.467e-05,-0.0584591
2.469e-05,-0.0585191
2.470e-05,-0.0585387
2.472e-05,-0.0583691
2.474e-05,-0.0584787
2.475e-05,-0.0583548
2.477e-05,-0.0584278
2.478e-05,-0.0585257
2.480e-05,-0.0584187
2.482e-05,-0.0585126
2.483e-05,-0.0584004
2.485e-05,-0.0584552
2.486e-05,-0.0583782
2.488e-05,-0.0584069
2.490e-05,-0.0585713
2.491e-05,-0.0583743
2.493e-05,-0.058604
2.494e-05,-0.0584056
2.496e-05,-0.05845
2.498e-05,-0.0584839
2.499e-05,-0.0584317
2.501e-05,-0.0585374
2.502e-05,-0.0584826
2.504e-05,-0.0585087
2.506e-05,-0.0583861
2.507e-05,-0.0584839
2.509e-05,-0.0584396
2.510e-05,-0.0584304
2.512e-05,-0.0583756
2.514e-05,-0.058403
2.515e-05,-0.0585152
2.517e-05,-0.0585922
2.518e-05,-0.0585766
2.520e-05,-0.0585648
2.522e-05,-0.0585113
2.523e-05,-0.0584109
2.525e-05,-0.0585426
2.526e-05,-0.0585726
2.528e-05,-0.0585713
2.530e-05,-0.0585309
2.531e-05,-0.0584317
2.533e-05,-0.0584696
2.534e-05,-0.0585035
2.536e-05,-0.0586183
2.538e-05,-0.0585087
2.539e-05,-0.0585061
2.541e-05,-0.0585205
2.542e-05,-0.058463
2.544e-05,-0.0585596
2.546e-05,-0.0585374
2.547e-05,-0.0585648
2.549e-05,-0.0584526
2.550e-05,-0.0585218
2.552e-05,-0.0585191
2.554e-05,-0.0584774
2.555e-05,-0.0585987
2.557e-05,-0.0585922
2.558e-05,-0.0585752
2.560e-05,-0.0584826
2.562e-05,-0.058467
2.563e-05,-0.05863
2.565e-05,-0.0586444
2.566e-05,-0.058587
2.568e-05,-0.0585244
2.570e-05,-0.058587
2.571e-05,-0.0585452
2.573e-05,-0.0586509
2.574e-05,-0.0585087
2.576e-05,-0.0586183
2.578e-05,-0.0585505
2.579e-05,-0.0586105
2.581e-05,-0.0585465
2.582e-05,-0.0586574
2.584e-05,-0.0585909
2.586e-05,-0.0585296
2.587e-05,-0.0585935
2.589e-05,-0.0585961
2.590e-05,-0.0586118
2.592e-05,-0.0587135
2.594e-05,-0.0586131
2.595e-05,-0.058587
2.597e-05,-0.0585896
2.598e-05,-0.0586601
2.600e-05,-0.058737
2.602e-05,-0.0587723
2.603e-05,-0.0586418
2.605e-05,-0.0585609
2.606e-05,-0.0586092
2.608e-05,-0.0586875
2.610e-05,-0.0587005
2.611e-05,-0.0587227
2.613e-05,-0.058634
2.614e-05,-0.0586431
2.616e-05,-0.0587396
2.618e-05,-0.0587253
2.619e-05,-0.0586483
2.621e-05,-0.0586079
2.622e-05,-0.058724
2.624e-05,-0.0587449
2.626e-05,-0.0587501
2.627e-05,-0.0587527
2.629e-05,-0.0586601
2.630e-05,-0.058754
2.632e-05,-0.0586835
2.634e-05,-0.0587488
2.635e-05,-0.0587396
2.637e-05,-0.0587227
2.638e-05,-0.0588218
2.640e-05,-0.0586927
2.642e-05,-0.0587462
2.643e-05,-0.0587462
2.645e-05,-0.0588062
2.646e-05,-0.058784
2.648e-05,-0.0586796
2.650e-05,-0.0588127
2.651e-05,-0.0587462
2.653e-05,-0.0588218
2.654e-05,-0.0587723
2.656e-05,-0.0586901
2.658e-05,-0.0587175
2.659e-05,-0.0586105
2.661e-05,-0.0587905
2.662e-05,-0.0587005
2.664e-05,-0.0588036
2.666e-05,-0.0587318
2.667e-05,-0.0588023
2.669e-05,-0.0587566
2.670e-05,-0.0586535
2.672e-05,-0.0586601
2.674e-05,-0.0587292
2.675e-05,-0.0587227
2.677e-05,-0.0587853
2.678e-05,-0.0587396
2.680e-05,-0.0587592
2.682e-05,-0.0587514
2.683e-05,-0.0587853
2.685e-05,-0.0587997
2.686e-05,-0.0588531
2.688e-05,-0.0586457
2.690e-05,-0.058694
2.691e-05,-0.0587344
2.693e-05,-0.0588336
2.694e-05,-0.0586418
2.696e-05,-0.0586653
2.698e-05,-0.0587657
2.699e-05,-0.0587644
2.701e-05,-0.0587031
2.702e-05,-0.0586431
2.704e-05,-0.0586483
2.706e-05,-0.0587383
2.707e-05,-0.058797
2.709e-05,-0.0587657
2.710e-05,-0.0587501
2.712e-05,-0.0587422
2.714e-05,-0.0585818
2.715e-05,-0.0586718
2.717e-05,-0.0587396
2.718e-05,-0.0588088
2.720e-05,-0.0587279
2.722e-05,-0.058527
2.723e-05,-0.0586601
2.725e-05,-0.0587253
2.726e-05,-0.0587644
2.728e-05,-0.0586953
2.730e-05,-0.0586809
2.731e-05,-0.0585322
2.733e-05,-0.0586431
2.734e-05,-0.058767
2.736e-05,-0.058737
2.738e-05,-0.0586848
2.739e-05,-0.0586196
2.741e-05,-0.0586992
2.742e-05,-0.058634
2.744e-05,-0.0587749
2.746e-05,-0.0586574
2.747e-05,-0.0586861
2.749e-05,-0.0586105
2.750e-05,-0.05851
2.752e-05,-0.0587736
2.754e-05,-0.058784
2.755e-05,-0.0586979
2.757e-05,-0.0584839
2.758e-05,-0.0586522
2.760e-05,-0.0587122
2.762e-05,-0.0585805
2.763e-05,-0.0586274
2.765e-05,-0.0586013
2.766e-05,-0.0586979
2.768e-05,-0.0586196
2.770e-05,-0.0586457
2.771e-05,-0.0586796
2.773e-05,-0.058707
2.774e-05,-0.0587188
2.776e-05,-0.0587475
2.778e-05,-0.0587644
2.779e-05,-0.0587357
2.781e-05,-0.0586379
2.782e-05,-0.0587018
2.784e-05,-0.0586835
2.786e-05,-0.0587409
2.787e-05,-0.0587801
2.789e-05,-0.0587018
2.790e-05,-0.058694
2.792e-05,-0.058754
2.794e-05,-0.0587749
2.795e-05,-0.0587892
2.797e-05,-0.0587266
2.798e-05,-0.0586353
2.800e-05,-0.058801
2.802e-05,-0.0587905
2.803e-05,-0.0587592
2.805e-05,-0.0588962
2.806e-05,-0.0588988
2.808e-05,-0.0587018
2.810e-05,-0.0588427
2.811e-05,-0.0588179
2.813e-05,-0.0589693
2.814e-05,-0.0588649
2.816e-05,-0.0589941
2.818e-05,-0.0589732
2.819e-05,-0.0588871
2.821e-05,-0.0588871
2.822e-05,-0.0589079
2.824e-05,-0.0590815
2.826e-05,-0.0590371
2.827e-05,-0.0589667
2.829e-05,-0.0591271
2.830e-05,-0.0589171
2.832e-05,-0.0591441
2.834e-05,-0.0589954
2.835e-05,-0.0590723
2.837e-05,-0.0590671
2.838e-05,-0.0591597
2.840e-05,-0.0591597
2.842e-05,-0.0591689
2.843e-05,-0.0592002
2.845e-05,-0.059178
2.846e-05,-0.0591441
2.848e-05,-0.0592393
2.850e-05,-0.0592224
2.851e-05,-0.0592341
2.853e-05,-0.0593372
2.854e-05,-0.0592902
2.856e-05,-0.0592511
2.858e-05,-0.0592954
2.859e-05,-0.0592615
2.861e-05,-0.0593724
2.862e-05,-0.059362
2.864e-05,-0.0593228
2.866e-05,-0.0594624
2.867e-05,-0.0592759
2.869e-05,-0.0593515
2.870e-05,-0.0593111
2.872e-05,-0.0595433
2.874e-05,-0.0595407
2.875e-05,-0.0594507
2.877e-05,-0.0594272
2.878e-05,-0.0595185
2.880e-05,-0.0594885
2.882e-05,-0.0596451
2.883e-05,-0.0594311
2.885e-05,-0.059512
2.886e-05,-0.0594455
2.888e-05,-0.0595851
2.890e-05,-0.0595616
2.891e-05,-0.0597169
2.893e-05,-0.0595772
2.894e-05,-0.0596855
2.896e-05,-0.0596007
2.898e-05,-0.0596073
2.899e-05,-0.0597116
2.901e-05,-0.0597429
2.902e-05,-0.059632
2.904e-05,-0.0597429
2.906e-05,-0.0596138
2.907e-05,-0.0597638
2.909e-05,-0.0597964
2.910e-05,-0.0597482
2.912e-05,-0.0598604
2.914e-05,-0.0597182
2.915e-05,-0.0597638
2.917e-05,-0.0596007
2.918e-05,-0.0598043
2.920e-05,-0.0599191
2.922e-05,-0.0597716
2.923e-05,-0.0598747
2.925e-05,-0.0596699
2.926e-05,-0.0598304
2.928e-05,-0.0599243
2.930e-05,-0.0600208
2.931e-05,-0.0600482
2.933e-05,-0.0597938
2.934e-05,-0.0598264
2.936e-05,-0.0599178
2.938e-05,-0.0601317
2.939e-05,-0.0600391
2.941e-05,-0.0599739
2.942e-05,-0.0600743
2.944e-05,-0.0600796
2.946e-05,-0.0601513
2.947e-05,-0.0601396
2.949e-05,-0.0600652
2.950e-05,-0.0601213
2.952e-05,-0.0601226
2.954e-05,-0.0601265
2.955e-05,-0.0602531
2.957e-05,-0.0603327
2.958e-05,-0.0601865
2.960e-05,-0.0602635
2.962e-05,-0.0602844
2.963e-05,-0.0602974
2.965e-05,-0.0602883
2.966e-05,-0.0603548
2.968e-05,-0.0603353
2.970e-05,-0.0604083
2.971e-05,-0.0604827
2.973e-05,-0.0604253
2.974e-05,-0.0604331
2.976e-05,-0.0605049
2.978e-05,-0.060531
2.979e-05,-0.0606667
2.981e-05,-0.0606536
2.982e-05,-0.0606145
2.984e-05,-0.0606249
2.986e-05,-0.0606562
2.987e-05,-0.0606627
2.989e-05,-0.0607371
2.990e-05,-0.0607776
2.992e-05,-0.060878
2.994e-05,-0.0608793
2.995e-05,-0.0609693
2.997e-05,-0.0609185
2.998e-05,-0.0609067
3.000e-05,-0.0610124
3.002e-05,-0.060972
3.003e-05,-0.0610972
3.005e-05,-0.0610685
3.006e-05,-0.0610802
3.008e-05,-0.0611181
3.010e-05,-0.0612055
3.011e-05,-0.061289
3.013e-05,-0.0612198
3.014e-05,-0.0613334
3.016e-05,-0.0613073
3.018e-05,-0.061409
3.019e-05,-0.0614299
3.021e-05,-0.0613334
3.022e-05,-0.0613007
3.024e-05,-0.0614964
3.026e-05,-0.06161
3.027e-05,-0.0615473
3.029e-05,-0.06161
3.030e-05,-0.0615786
3.032e-05,-0.0616869
3.034e-05,-0.0617678
3.035e-05,-0.0616086
3.037e-05,-0.0616895
3.038e-05,-0.0617848
3.040e-05,-0.0619583
3.042e-05,-0.0618774
3.043e-05,-0.0619205
3.045e-05,-0.0618265
3.046e-05,-0.0618787
3.048e-05,-0.0620809
3.050e-05,-0.0621514
3.051e-05,-0.0621136
3.053e-05,-0.0621162
3.054e-05,-0.0620718
3.056e-05,-0.0621475
3.058e-05,-0.0622349
3.059e-05,-0.0623119
3.061e-05,-0.0622597
3.062e-05,-0.0622753
3.064e-05,-0.0622336
3.066e-05,-0.0624149
3.067e-05,-0.0625389
3.069e-05,-0.0625298
3.070e-05,-0.0624541
3.072e-05,-0.0624071
3.074e-05,-0.0625037
3.075e-05,-0.0626511
3.077e-05,-0.0627555
3.078e-05,-0.0626981
3.080e-05,-0.0627594
3.082e-05,-0.0627594
3.083e-05,-0.0629172
3.085e-05,-0.0627998
3.086e-05,-0.0629812
3.088e-05,-0.062852
3.090e-05,-0.0629786
3.091e-05,-0.0630999
3.093e-05,-0.0631691
3.094e-05,-0.0632291
3.096e-05,-0.0631299
3.098e-05,-0.0631403
3.099e-05,-0.0633765
3.101e-05,-0.0633791
3.102e-05,-0.0636257
3.104e-05,-0.0634757
3.106e-05,-0.0635083
3.107e-05,-0.0634887
3.109e-05,-0.0637183
3.110e-05,-0.0636701
3.112e-05,-0.0637575
3.114e-05,-0.063674
3.115e-05,-0.0638123
3.117e-05,-0.0637823
3.118e-05,-0.0641163
3.120e-05,-0.0641163
3.122e-05,-0.0642572
3.123e-05,-0.0642624
3.125e-05,-0.0641228
3.126e-05,-0.0642219
3.128e-05,-0.064312
3.130e-05,-0.0643876
3.131e-05,-0.0645481
3.133e-05,-0.0643981
3.134e-05,-0.064539
3.136e-05,-0.0645064
3.138e-05,-0.0646929
3.139e-05,-0.0648521
3.141e-05,-0.0648599
3.142e-05,-0.0648743
3.144e-05,-0.0647686
3.146e-05,-0.0651509
3.147e-05,-0.0651378
3.149e-05,-0.0651652
3.150e-05,-0.0650896
3.152e-05,-0.0652174
3.154e-05,-0.0652983
3.155e-05,-0.0654001
3.157e-05,-0.0655423
3.158e-05,-0.0654601
3.160e-05,-0.0654679
3.162e-05,-0.0655971
3.163e-05,-0.0657902
3.165e-05,-0.0659272
3.166e-05,-0.0657993
3.168e-05,-0.065935
3.170e-05,-0.0659676
3.171e-05,-0.0660407
3.173e-05,-0.0659833
3.174e-05,-0.0661463
3.176e-05,-0.066132
3.178e-05,-0.066282
3.179e-05,-0.0663094
3.181e-05,-0.0663734
3.182e-05,-0.066419
3.184e-05,-0.066479
3.186e-05,-0.0665312
3.187e-05,-0.0666995
3.189e-05,-0.0665795
3.190e-05,-0.0667661
3.192e-05,-0.066723
3.194e-05,-0.06683
3.195e-05,-0.0667778
3.197e-05,-0.0669605
3.198e-05,-0.0669579
3.200e-05,-0.0670662
3.202e-05,-0.0670988
3.203e-05,-0.0670896
3.205e-05,-0.0671523
3.206e-05,-0.0672697
3.208e-05,-0.0673728
3.210e-05,-0.0674249
3.211e-05,-0.0674367
3.213e-05,-0.067498
3.214e-05,-0.0674641
3.216e-05,-0.0676911
3.218e-05,-0.0677211
3.219e-05,-0.0676624
3.221e-05,-0.0677394
3.222e-05,-0.0677263
3.224e-05,-0.0679586
3.226e-05,-0.0680107
3.227e-05,-0.0681073
3.229e-05,-0.0680655
3.230e-05,-0.0680864
3.232e-05,-0.0682025
3.234e-05,-0.0683239
3.235e-05,-0.0684243
3.237e-05,-0.0685078
3.238e-05,-0.0683995
3.240e-05,-0.0686435
3.242e-05,-0.0685731
3.243e-05,-0.0687701
3.245e-05,-0.0687401
3.246e-05,-0.0687844
3.248e-05,-0.0688379
3.250e-05,-0.0689319
3.251e-05,-0.0690571
3.253e-05,-0.0691132
3.254e-05,-0.0691876
3.256e-05,-0.0692228
3.258e-05,-0.0692946
3.259e-05,-0.0693833
3.261e-05,-0.0693272
3.262e-05,-0.0695816
3.264e-05,-0.0695425
3.266e-05,-0.0697721
3.267e-05,-0.0696246
3.269e-05,-0.069716
3.270e-05,-0.0698491
3.272e-05,-0.0697838
3.274e-05,-0.0699652
3.275e-05,-0.0701009
3.277e-05,-0.0701817
3.278e-05,-0.0702796
3.280e-05,-0.070153
3.282e-05,-0.0702705
3.283e-05,-0.0702966
3.285e-05,-0.0704414
3.286e-05,-0.0705223
3.288e-05,-0.0705418
3.290e-05,-0.0706945
3.291e-05,-0.0706971
3.293e-05,-0.0707532
3.294e-05,-0.0708119
3.296e-05,-0.0708576
3.298e-05,-0.0710794
3.299e-05,-0.0711446
3.301e-05,-0.0710898
3.302e-05,-0.0711211
3.304e-05,-0.0710781
3.306e-05,-0.0713586
3.307e-05,-0.0713364
3.309e-05,-0.071369
3.310e-05,-0.0713964
3.312e-05,-0.0715217
3.314e-05,-0.0716652
3.315e-05,-0.0716091
3.317e-05,-0.0716652
3.318e-05,-0.0717069
3.320e-05,-0.0717878
3.322e-05,-0.0719835
3.323e-05,-0.0719274
3.325e-05,-0.0720201
3.326e-05,-0.072084
3.328e-05,-0.0720605
3.330e-05,-0.0721101
3.331e-05,-0.0721884
3.333e-05,-0.0722249
3.334e-05,-0.0723371
3.336e-05,-0.0723775
3.338e-05,-0.0723567
3.339e-05,-0.0724689
3.341e-05,-0.0725315
3.342e-05,-0.0726724
3.344e-05,-0.0725445
3.346e-05,-0.0726933
3.347e-05,-0.072705
3.349e-05,-0.0728381
3.350e-05,-0.0728916
3.352e-05,-0.0728003
3.354e-05,-0.0729594
3.355e-05,-0.0728485
3.357e-05,-0.0730742
3.358e-05,-0.073133
3.360e-05,-0.0730742
3.362e-05,-0.0731434
3.363e-05,-0.0730299
3.365e-05,-0.0733561
3.366e-05,-0.0733052
3.368e-05,-0.0733247
3.370e-05,-0.0732778
3.371e-05,-0.0733221
3.373e-05,-0.0735687
3.374e-05,-0.0735204
3.376e-05,-0.0736274
3.378e-05,-0.0734878
3.379e-05,-0.0736131
3.381e-05,-0.0736431
3.382e-05,-0.0736509
3.384e-05,-0.0738571
3.386e-05,-0.0738075
3.387e-05,-0.0737722
3.389e-05,-0.0738492
3.390e-05,-0.073814
3.392e-05,-0.073891
3.394e-05,-0.0739118
3.395e-05,-0.0739875
3.397e-05,-0.0740619
3.398e-05,-0.0741102
3.400e-05,-0.0741206
3.402e-05,-0.0740606
3.403e-05,-0.0740841
3.405e-05,-0.0743815
3.406e-05,-0.0741584
3.408e-05,-0.0743046
3.410e-05,-0.0742028
3.411e-05,-0.074328
3.413e-05,-0.0744115
3.414e-05,-0.0742889
3.416e-05,-0.074422
3.418e-05,-0.0743959
3.419e-05,-0.0745381
3.421e-05,-0.074512
3.422e-05,-0.0744128
3.424e-05,-0.0745668
3.426e-05,-0.074482
3.427e-05,-0.0747416
3.429e-05,-0.0747155
3.430e-05,-0.0745407
3.432e-05,-0.0746725
3.434e-05,-0.074636
3.435e-05,-0.0747468
3.437e-05,-0.0746203
3.438e-05,-0.0748551
3.440e-05,-0.0747429
3.442e-05,-0.0748147
3.443e-05,-0.0747377
3.445e-05,-0.0748369
3.446e-05,-0.0748825
3.448e-05,-0.0749439
3.450e-05,-0.0748525
3.451e-05,-0.0748891
3.453e-05,-0.0748225
3.454e-05,-0.0749595
3.456e-05,-0.0748382
3.458e-05,-0.0750039
3.459e-05,-0.0749934
3.461e-05,-0.0750247
3.462e-05,-0.0749804
3.464e-05,-0.0751069
3.466e-05,-0.0750287
3.467e-05,-0.0750756
3.469e-05,-0.0750052
3.470e-05,-0.0750482
3.472e-05,-0.0749987
3.474e-05,-0.0752713
3.475e-05,-0.0750443
3.477e-05,-0.0752087
3.478e-05,-0.0750561
3.480e-05,-0.0751069
3.482e-05,-0.0751852
3.483e-05,-0.0750913
3.485e-05,-0.0751891
3.486e-05,-0.075197
3.488e-05,-0.0751657
3.490e-05,-0.0752505
3.491e-05,-0.0752426
3.493e-05,-0.0752361
3.494e-05,-0.07524
3.496e-05,-0.0752544
3.498e-05,-0.0751852
3.499e-05,-0.0751787
3.501e-05,-0.0751683
3.502e-05,-0.0752492
3.504e-05,-0.0752439
3.506e-05,-0.0751657
3.507e-05,-0.0751396
3.509e-05,-0.0750874
3.510e-05,-0.0753261
3.512e-05,-0.0751852
3.514e-05,-0.0752674
3.515e-05,-0.0750874
3.517e-05,-0.0751748
3.518e-05,-0.0751539
3.520e-05,-0.0753144
3.522e-05,-0.0752061
3.523e-05,-0.0750717
3.525e-05,-0.0750078
3.526e-05,-0.0750874
3.528e-05,-0.0750508
3.530e-05,-0.0752739
3.531e-05,-0.0750456
3.533e-05,-0.0751578
3.534e-05,-0.0750182
3.536e-05,-0.0751422
3.538e-05,-0.0750808
3.539e-05,-0.0751096
3.541e-05,-0.0749008
3.542e-05,-0.0749726
3.544e-05,-0.0749517
3.546e-05,-0.07509
3.547e-05,-0.074936
3.549e-05,-0.0749073
3.550e-05,-0.0747703
3.552e-05,-0.0748016
3.554e-05,-0.074799
3.555e-05,-0.0747938
3.557e-05,-0.0748434
3.558e-05,-0.0747664
3.560e-05,-0.0747129
3.562e-05,-0.0745825
3.563e-05,-0.0745342
3.565e-05,-0.0746803
3.566e-05,-0.0745616
3.568e-05,-0.0745707
3.570e-05,-0.0743333
3.571e-05,-0.0743267
3.573e-05,-0.0743972
3.574e-05,-0.0742615
3.576e-05,-0.0744481
3.578e-05,-0.0741206
3.579e-05,-0.0741584
3.581e-05,-0.0741102
3.582e-05,-0.0740997
3.584e-05,-0.0741545
3.586e-05,-0.0740019
3.587e-05,-0.0739666
3.589e-05,-0.0737344
3.590e-05,-0.0739379
3.592e-05,-0.0739275
3.594e-05,-0.0736848
3.595e-05,-0.073767
3.597e-05,-0.0734917
3.598e-05,-0.0736914
3.600e-05,-0.0735752
3.602e-05,-0.0736509
3.603e-05,-0.0733717
3.605e-05,-0.0733652
3.606e-05,-0.0733626
3.608e-05,-0.0733365
3.610e-05,-0.0733717
3.611e-05,-0.073193
3.613e-05,-0.0730377
3.614e-05,-0.0729633
3.616e-05,-0.0729425
3.618e-05,-0.0729933
3.619e-05,-0.0729607
3.621e-05,-0.0729633
3.622e-05,-0.0726659
3.624e-05,-0.0726554
3.626e-05,-0.0726111
3.627e-05,-0.0726085
3.629e-05,-0.0725602
3.630e-05,-0.0724336
3.632e-05,-0.0723253
3.634e-05,-0.072294
3.635e-05,-0.0723227
3.637e-05,-0.0721557
3.638e-05,-0.0721897
3.640e-05,-0.0720983
3.642e-05,-0.0720383
3.643e-05,-0.0719183
3.645e-05,-0.0718791
3.646e-05,-0.0719548
3.648e-05,-0.0718661
3.650e-05,-0.0717435
3.651e-05,-0.0716091
3.653e-05,-0.0716547
3.654e-05,-0.0717161
3.656e-05,-0.0715399
3.658e-05,-0.0715504
3.659e-05,-0.071279
3.661e-05,-0.0713416
3.662e-05,-0.0712803
3.664e-05,-0.0713312
3.666e-05,-0.0711681
3.667e-05,-0.0710807
3.669e-05,-0.0709267
3.670e-05,-0.0709998
3.672e-05,-0.0708419
3.674e-05,-0.0708732
3.675e-05,-0.0707154
3.677e-05,-0.0706893
3.678e-05,-0.0705888
3.680e-05,-0.0704975
3.682e-05,-0.0705431
3.683e-05,-0.0704466
3.685e-05,-0.070337
3.686e-05,-0.07023
3.688e-05,-0.0701635
3.690e-05,-0.0702352
3.691e-05,-0.0700735
3.693e-05,-0.0701074
3.694e-05,-0.069823
3.696e-05,-0.0699104
3.698e-05,-0.0699273
3.699e-05,-0.0698595
3.701e-05,-0.0697551
3.702e-05,-0.0695777
3.704e-05,-0.0695672
3.706e-05,-0.0694863
3.707e-05,-0.0694472
3.709e-05,-0.0694329
3.710e-05,-0.0692476
3.712e-05,-0.0693533
3.714e-05,-0.0692176
3.715e-05,-0.0691041
3.717e-05,-0.0690962
3.718e-05,-0.0689788
3.720e-05,-0.0690127
3.722e-05,-0.0688484
3.723e-05,-0.0688731
3.725e-05,-0.0686553
3.726e-05,-0.068637
3.728e-05,-0.0686005
3.730e-05,-0.0686527
3.731e-05,-0.0684922
3.733e-05,-0.06838
3.734e-05,-0.0683356
3.736e-05,-0.0683252
3.738e-05,-0.0682078
3.739e-05,-0.0680773
3.741e-05,-0.0681321
3.742e-05,-0.0680277
3.744e-05,-0.0680395
3.746e-05,-0.0677563
3.747e-05,-0.0678894
3.749e-05,-0.0677968
3.750e-05,-0.0676689
3.752e-05,-0.0677107
3.754e-05,-0.0675189
3.755e-05,-0.0675228
3.757e-05,-0.0674093
3.758e-05,-0.0674315
3.760e-05,-0.0673884
3.762e-05,-0.067151
3.763e-05,-0.0671536
3.765e-05,-0.0670962
3.766e-05,-0.0672292
3.768e-05,-0.0670988
3.770e-05,-0.0668509
3.771e-05,-0.0667308
3.773e-05,-0.0666473
3.774e-05,-0.0667139
3.776e-05,-0.0667491
3.778e-05,-0.0665599
3.779e-05,-0.0665012
3.781e-05,-0.0663695
3.782e-05,-0.0663551
3.784e-05,-0.0662951
3.786e-05,-0.0661803
3.787e-05,-0.0661255
3.789e-05,-0.065935
3.790e-05,-0.0660041
3.792e-05,-0.0660446
3.794e-05,-0.0659585
3.795e-05,-0.0657602
3.797e-05,-0.0655618
3.798e-05,-0.0656714
3.800e-05,-0.065524
3.802e-05,-0.0654314
3.803e-05,-0.0653635
3.805e-05,-0.0653583
3.806e-05,-0.0654444
3.808e-05,-0.065297
3.810e-05,-0.0652239
3.811e-05,-0.0648886
3.813e-05,-0.0649787
3.814e-05,-0.0649878
3.816e-05,-0.0649421
3.818e-05,-0.0648834
3.819e-05,-0.064706
3.821e-05,-0.0646773
3.822e-05,-0.0645846
3.824e-05,-0.0645912
3.826e-05,-0.0644424
3.827e-05,-0.0644111
3.829e-05,-0.0644281
3.830e-05,-0.0641841
3.832e-05,-0.0642937
3.834e-05,-0.0641554
3.835e-05,-0.0641985
3.837e-05,-0.0640706
3.838e-05,-0.0639414
3.840e-05,-0.0638331
3.842e-05,-0.0638279
3.843e-05,-0.0638371
3.845e-05,-0.0637327
3.846e-05,-0.0636035
3.848e-05,-0.063537
3.850e-05,-0.0636753
3.851e-05,-0.0636048
3.853e-05,-0.0634757
3.854e-05,-0.0633661
3.856e-05,-0.0633073
3.858e-05,-0.0632643
3.859e-05,-0.0632526
3.861e-05,-0.0631991
3.862e-05,-0.0631521
3.864e-05,-0.0630516
3.866e-05,-0.0630216
3.867e-05,-0.0629042
3.869e-05,-0.0630281
3.870e-05,-0.0628416
3.872e-05,-0.0628037
3.874e-05,-0.0626772
3.875e-05,-0.0628507
3.877e-05,-0.0627137
3.878e-05,-0.0625532
3.880e-05,-0.0623993
3.882e-05,-0.0623641
3.883e-05,-0.0624384
3.885e-05,-0.0624932
3.886e-05,-0.0623849
3.888e-05,-0.0623327
3.890e-05,-0.0621018
3.891e-05,-0.0621579
3.893e-05,-0.0622258
3.894e-05,-0.0621214
3.896e-05,-0.0620027
3.898e-05,-0.0620301
3.899e-05,-0.0620092
3.901e-05,-0.0619009
3.902e-05,-0.0617639
3.904e-05,-0.0618435
3.906e-05,-0.0617613
3.907e-05,-0.0617783
3.909e-05,-0.0617926
3.910e-05,-0.0616321
3.912e-05,-0.0617561
3.914e-05,-0.061546
3.915e-05,-0.0615447
3.917e-05,-0.0614273
3.918e-05,-0.0613882
3.920e-05,-0.0614364
3.922e-05,-0.0613855
3.923e-05,-0.0614521
3.925e-05,-0.0612525
3.926e-05,-0.0612146
3.928e-05,-0.0612277
3.930e-05,-0.0610998
3.931e-05,-0.061319
3.933e-05,-0.0610659
3.934e-05,-0.061109
3.936e-05,-0.0609628
3.938e-05,-0.0609224
3.939e-05,-0.0608532
3.941e-05,-0.0609263
3.942e-05,-0.0609185
3.944e-05,-0.0608585
3.946e-05,-0.0607058
3.947e-05,-0.0607423
3.949e-05,-0.0606367
3.950e-05,-0.0608154
3.952e-05,-0.0607254
3.954e-05,-0.0606993
3.955e-05,-0.060591
3.957e-05,-0.0605505
3.958e-05,-0.0604514
3.960e-05,-0.0605479
3.962e-05,-0.060441
3.963e-05,-0.0603835
3.965e-05,-0.0603653
3.966e-05,-0.0603914
3.968e-05,-0.0602348
3.970e-05,-0.0602974
3.971e-05,-0.0601983
3.973e-05,-0.060133
3.974e-05,-0.0601161
3.976e-05,-0.060103
3.978e-05,-0.060167
3.979e-05,-0.0601056
3.981e-05,-0.060107
3.982e-05,-0.0600326
3.984e-05,-0.0600326
3.986e-05,-0.0600874
3.987e-05,-0.0600221
3.989e-05,-0.0599426
3.990e-05,-0.05997
3.992e-05,-0.0598969
3.994e-05,-0.0598669
3.995e-05,-0.0598043
3.997e-05,-0.0598043
3.998e-05,-0.0597847
4.000e-05,-0.0598017
4.002e-05,-0.0597064
4.003e-05,-0.0597782
4.005e-05,-0.0596947
4.006e-05,-0.0597495
4.008e-05,-0.0595812
4.010e-05,-0.0595786
4.011e-05,-0.0595185
4.013e-05,-0.0596647
4.014e-05,-0.0596621
4.016e-05,-0.0595903
4.018e-05,-0.059482
4.019e-05,-0.059529
4.021e-05,-0.0594494
4.022e-05,-0.0594376
4.024e-05,-0.0594546
4.026e-05,-0.0594977
4.027e-05,-0.059392
4.029e-05,-0.059405
4.030e-05,-0.0592237
4.032e-05,-0.0594755
4.034e-05,-0.0593033
4.035e-05,-0.0593411
4.037e-05,-0.0592106
4.038e-05,-0.0591871
4.040e-05,-0.0591741
4.042e-05,-0.0592093
4.043e-05,-0.0592015
4.045e-05,-0.059178
4.046e-05,-0.0591676
4.048e-05,-0.0591193
4.050e-05,-0.0589627
4.051e-05,-0.0589667
4.053e-05,-0.0589875
4.054e-05,-0.0590945
4.056e-05,-0.0590958
4.058e-05,-0.0591284
4.059e-05,-0.0589993
4.061e-05,-0.0589092
4.062e-05,-0.0589158
4.064e-05,-0.0589849
4.066e-05,-0.0590606
4.067e-05,-0.0589132
4.069e-05,-0.058938
4.070e-05,-0.0587514
4.072e-05,-0.0588271
4.074e-05,-0.0588545
4.075e-05,-0.058934
4.077e-05,-0.0588127
4.078e-05,-0.0588192
4.080e-05,-0.0588192
4.082e-05,-0.058767
4.083e-05,-0.0588023
4.085e-05,-0.0587122
4.086e-05,-0.0586366
4.088e-05,-0.0587801
4.090e-05,-0.0586914
4.091e-05,-0.0588388
4.093e-05,-0.0585583
4.094e-05,-0.0587031
4.096e-05,-0.058557
4.098e-05,-0.0586901
4.099e-05,-0.0585883
4.101e-05,-0.0586522
4.102e-05,-0.058587
4.104e-05,-0.0587149
4.106e-05,-0.0585987
4.107e-05,-0.0587175
4.109e-05,-0.0585557
4.110e-05,-0.058557
4.112e-05,-0.058557
4.114e-05,-0.0586431
4.115e-05,-0.0586366
4.117e-05,-0.058557
4.118e-05,-0.0585126
4.120e-05,-0.0584904
4.122e-05,-0.0585726
4.123e-05,-0.0585648
4.125e-05,-0.0584461
4.126e-05,-0.0585609
4.128e-05,-0.0584552
4.130e-05,-0.0585218
4.131e-05,-0.0585818
4.133e-05,-0.0584735
4.134e-05,-0.0585831
4.136e-05,-0.0584396
4.138e-05,-0.0584735
4.139e-05,-0.0585335
4.141e-05,-0.0584813
4.142e-05,-0.0585309
4.144e-05,-0.0583039
4.146e-05,-0.0585361
4.147e-05,-0.05845
4.149e-05,-0.0585348
4.150e-05,-0.0584944
4.152e-05,-0.0584878
4.154e-05,-0.0585596
4.155e-05,-0.0584787
4.157e-05,-0.0585231
4.158e-05,-0.0584252
4.160e-05,-0.0584474
4.162e-05,-0.0583913
4.163e-05,-0.0584891
4.165e-05,-0.058463
4.166e-05,-0.0582908
4.168e-05,-0.0582178
4.170e-05,-0.058403
4.171e-05,-0.0584539
4.173e-05,-0.0583378
4.174e-05,-0.0583822
4.176e-05,-0.0582921
4.178e-05,-0.0583339
4.179e-05,-0.0583561
4.181e-05,-0.0583195
4.182e-05,-0.058373
4.184e-05,-0.0581225
4.186e-05,-0.0582439
4.187e-05,-0.0583561
4.189e-05,-0.0583561
4.190e-05,-0.0582621
4.192e-05,-0.0581721
4.194e-05,-0.0581904
4.195e-05,-0.0582452
4.197e-05,-0.0582426
4.198e-05,-0.0582086
4.200e-05,-0.0582452
4.202e-05,-0.0582987
4.203e-05,-0.0582047
4.205e-05,-0.0581865
4.206e-05,-0.0581082
4.208e-05,-0.0581656
4.210e-05,-0.0581617
4.211e-05,-0.0582334
4.213e-05,-0.058069
4.214e-05,-0.058163
4.216e-05,-0.0580651
4.218e-05,-0.0582608
4.219e-05,-0.0581473
4.221e-05,-0.0581878
4.222e-05,-0.0581525
4.224e-05,-0.0581904
4.226e-05,-0.0583
4.227e-05,-0.0582178
4.229e-05,-0.0581251
4.230e-05,-0.0580899
4.232e-05,-0.0581825
4.234e-05,-0.0582686
4.235e-05,-0.0582556
4.237e-05,-0.0582934
4.238e-05,-0.0581656
4.240e-05,-0.0582582
4.242e-05,-0.0582112
4.243e-05,-0.0582386
4.245e-05,-0.0583626
4.246e-05,-0.0583234
4.248e-05,-0.05836
4.250e-05,-0.0581799
4.251e-05,-0.0583404
4.253e-05,-0.0583143
4.254e-05,-0.05842
4.256e-05,-0.0583104
4.258e-05,-0.0583809
4.259e-05,-0.058403
4.261e-05,-0.0582895
4.262e-05,-0.0583887
4.264e-05,-0.0582947
4.266e-05,-0.05839
4.267e-05,-0.0584826
4.269e-05,-0.0584878
4.270e-05,-0.0585048
4.272e-05,-0.0583822
4.274e-05,-0.0584082
4.275e-05,-0.0583548
4.277e-05,-0.0584082
4.278e-05,-0.0584917
4.280e-05,-0.0584774
4.282e-05,-0.0584304
4.283e-05,-0.0584774
4.285e-05,-0.0583535
4.286e-05,-0.0585165
4.288e-05,-0.0584435
4.290e-05,-0.0584983
4.291e-05,-0.0584865
4.293e-05,-0.0584696
4.294e-05,-0.0583508
4.296e-05,-0.0584356
4.298e-05,-0.0584839
4.299e-05,-0.058557
4.301e-05,-0.0584526
4.302e-05,-0.0584148
4.304e-05,-0.058296
4.306e-05,-0.0584526
4.307e-05,-0.0584474
4.309e-05,-0.0585452
4.310e-05,-0.0584957
4.312e-05,-0.0584422
4.314e-05,-0.0584109
4.315e-05,-0.0584709
4.317e-05,-0.0585178
4.318e-05,-0.0585413
4.320e-05,-0.0585022
4.322e-05,-0.0584082
4.323e-05,-0.0583613
4.325e-05,-0.0585231
4.326e-05,-0.0584174
4.328e-05,-0.058437
4.330e-05,-0.05836
4.331e-05,-0.0584565
4.333e-05,-0.0584096
4.334e-05,-0.0584552
4.336e-05,-0.058433
4.338e-05,-0.0584174
4.339e-05,-0.0584396
4.341e-05,-0.0584735
4.342e-05,-0.0584565
4.344e-05,-0.0583639
4.346e-05,-0.0584526
4.347e-05,-0.0583978
4.349e-05,-0.0585544
4.350e-05,-0.0583887
4.352e-05,-0.0583417
4.354e-05,-0.0583965
4.355e-05,-0.05842
4.357e-05,-0.0584917
4.358e-05,-0.0584356
4.360e-05,-0.0582713
4.362e-05,-0.0584513
4.363e-05,-0.0584487
4.365e-05,-0.0585178
4.366e-05,-0.0583874
4.368e-05,-0.0583822
4.370e-05,-0.0582778
4.371e-05,-0.0583743
4.373e-05,-0.0584096
4.374e-05,-0.0584996
4.376e-05,-0.058343
4.378e-05,-0.0581969
4.379e-05,-0.0584174
4.381e-05,-0.0584578
4.382e-05,-0.0584122
4.384e-05,-0.0583587
4.386e-05,-0.0582139
4.387e-05,-0.0583339
4.389e-05,-0.0582647
4.390e-05,-0.0584761
4.392e-05,-0.0582843
4.394e-05,-0.058403
4.395e-05,-0.058193
4.397e-05,-0.0583274
4.398e-05,-0.0582478
4.400e-05,-0.0584356
4.402e-05,-0.0582882
4.403e-05,-0.0583065
4.405e-05,-0.0582947
4.406e-05,-0.0582478
4.408e-05,-0.058343
4.410e-05,-0.058373
4.411e-05,-0.0582882
4.413e-05,-0.058253
4.414e-05,-0.0581851
4.416e-05,-0.0584122
4.418e-05,-0.0582726
4.419e-05,-0.0583417
4.421e-05,-0.0583456
4.422e-05,-0.0582765
4.424e-05,-0.0583665
4.426e-05,-0.0582869
4.427e-05,-0.0583861
4.429e-05,-0.0582843
4.430e-05,-0.0582713
4.432e-05,-0.0582934
4.434e-05,-0.0583221
4.435e-05,-0.058343
4.437e-05,-0.0583156
4.438e-05,-0.0582412
4.440e-05,-0.0582804
4.442e-05,-0.0582621
4.443e-05,-0.05836
4.445e-05,-0.0584082
4.446e-05,-0.0582934
4.448e-05,-0.0582152
4.450e-05,-0.0582347
4.451e-05,-0.0582882
4.453e-05,-0.0584578
4.454e-05,-0.0583678
4.456e-05,-0.0583404
4.458e-05,-0.0582243
4.459e-05,-0.0583978
4.461e-05,-0.058313
4.462e-05,-0.0585152
4.464e-05,-0.0582139
4.466e-05,-0.0583482
4.467e-05,-0.0582987
4.469e-05,-0.0583978
4.470e-05,-0.0583691
4.472e-05,-0.0583861
4.474e-05,-0.0582974
4.475e-05,-0.0583143
4.477e-05,-0.0584396
4.478e-05,-0.0584096
4.480e-05,-0.0582282
4.482e-05,-0.0583508
4.483e-05,-0.0583026
4.485e-05,-0.058437
4.486e-05,-0.0583652
4.488e-05,-0.0584578
4.490e-05,-0.0583365
4.491e-05,-0.0583091
4.493e-05,-0.0583848
4.494e-05,-0.0583521
4.496e-05,-0.0584265
4.498e-05,-0.0584422
4.499e-05,-0.0584343
4.501e-05,-0.0583691
4.502e-05,-0.058373
4.504e-05,-0.058403
4.506e-05,-0.0583952
4.507e-05,-0.0584004
4.509e-05,-0.0584239
4.510e-05,-0.058433
4.512e-05,-0.058463
4.514e-05,-0.0584226
4.515e-05,-0.0583535
4.517e-05,-0.058373
4.518e-05,-0.0583795
4.520e-05,-0.0583639
4.522e-05,-0.0584265
4.523e-05,-0.0582974
4.525e-05,-0.0583874
4.526e-05,-0.0583313
4.528e-05,-0.0584448
4.530e-05,-0.0583574
4.531e-05,-0.0583835
4.533e-05,-0.0583091
4.534e-05,-0.0583169
4.536e-05,-0.0583626
4.538e-05,-0.0583769
4.539e-05,-0.0583574
4.541e-05,-0.0582869
4.542e-05,-0.0582765
4.544e-05,-0.0583639
4.546e-05,-0.0583208
4.547e-05,-0.0583782
4.549e-05,-0.0582778
4.550e-05,-0.0583469
4.552e-05,-0.0583561
4.554e-05,-0.0584069
4.555e-05,-0.0582321
4.557e-05,-0.0581995
4.558e-05,-0.0583208
4.560e-05,-0.05839
4.562e-05,-0.0583874
4.563e-05,-0.058236
4.565e-05,-0.0582647
4.566e-05,-0.0582791
4.568e-05,-0.0583143
4.570e-05,-0.0583313
4.571e-05,-0.0582386
4.573e-05,-0.0583287
4.574e-05,-0.0582465
4.576e-05,-0.0582765
4.578e-05,-0.0582412
4.579e-05,-0.0583104
4.581e-05,-0.0583339
4.582e-05,-0.0582843
4.584e-05,-0.0582713
4.586e-05,-0.0582621
4.587e-05,-0.058283
4.589e-05,-0.0583156
4.590e-05,-0.0582817
4.592e-05,-0.0582243
4.594e-05,-0.05827
4.595e-05,-0.0582882
4.597e-05,-0.0583417
4.598e-05,-0.0583065
4.600e-05,-0.0582934
4.602e-05,-0.0583261
4.603e-05,-0.0581917
4.605e-05,-0.0582726
4.606e-05,-0.0582465
4.608e-05,-0.0582582
4.610e-05,-0.0581956
4.611e-05,-0.0582908
4.613e-05,-0.0583104
4.614e-05,-0.0582308
4.616e-05,-0.0582882
4.618e-05,-0.0582804
4.619e-05,-0.0583117
4.621e-05,-0.0582621
4.622e-05,-0.0583835
4.624e-05,-0.0583143
4.626e-05,-0.0581891
4.627e-05,-0.0582386
4.629e-05,-0.0582504
4.630e-05,-0.0582543
4.632e-05,-0.0582621
4.634e-05,-0.0582582
4.635e-05,-0.0583078
4.637e-05,-0.0581838
4.638e-05,-0.0583678
4.640e-05,-0.0581708
4.642e-05,-0.0583208
4.643e-05,-0.0582778
4.645e-05,-0.058343
4.646e-05,-0.0582125
4.648e-05,-0.0582047
4.650e-05,-0.0582556
4.651e-05,-0.0582517
4.653e-05,-0.058403
4.654e-05,-0.0583822
4.656e-05,-0.0581695
4.658e-05,-0.0582465
4.659e-05,-0.0582843
4.661e-05,-0.0583365
4.662e-05,-0.0582347
4.664e-05,-0.0583443
4.666e-05,-0.0581277
4.667e-05,-0.058236
4.669e-05,-0.0581812
4.670e-05,-0.0584409
4.672e-05,-0.0583417
4.674e-05,-0.0583548
4.675e-05,-0.0582608
4.677e-05,-0.0583208
4.678e-05,-0.0582726
4.680e-05,-0.0583652
4.682e-05,-0.0583678
4.683e-05,-0.058266
4.685e-05,-0.0581838
4.686e-05,-0.0583104
4.688e-05,-0.05827
4.690e-05,-0.058343
4.691e-05,-0.0583208
4.693e-05,-0.0583104
4.694e-05,-0.0582086
4.696e-05,-0.0582908
4.698e-05,-0.0583208
4.699e-05,-0.0583313
4.701e-05,-0.0582608
4.702e-05,-0.0582439
4.704e-05,-0.0583221
4.706e-05,-0.058283
4.707e-05,-0.0583352
4.709e-05,-0.0583287
4.710e-05,-0.0584409
4.712e-05,-0.0583313
4.714e-05,-0.0583378
4.715e-05,-0.0583234
4.717e-05,-0.0583078
4.718e-05,-0.05836
4.720e-05,-0.0584304
4.722e-05,-0.0582921
4.723e-05,-0.0583704
4.725e-05,-0.058343
4.726e-05,-0.0585074
4.728e-05,-0.0583548
4.730e-05,-0.0585022
4.731e-05,-0.0582517
4.733e-05,-0.0584748
4.734e-05,-0.0583482
4.736e-05,-0.0585048
4.738e-05,-0.0584291
4.739e-05,-0.0583795
4.741e-05,-0.058467
4.742e-05,-0.0583861
4.744e-05,-0.0584004
4.746e-05,-0.0583887
4.747e-05,-0.0583404
4.749e-05,-0.058527
4.750e-05,-0.05836
4.752e-05,-0.0584122
4.754e-05,-0.0583456
4.755e-05,-0.0584474
4.757e-05,-0.0584265
4.758e-05,-0.0584604
4.760e-05,-0.0584278
4.762e-05,-0.0584735
4.763e-05,-0.0583887
4.765e-05,-0.0583874
4.766e-05,-0.0583339
4.768e-05,-0.0584474
4.770e-05,-0.0584722
4.771e-05,-0.0584278
4.773e-05,-0.0584109
4.774e-05,-0.0583013
4.776e-05,-0.0583795
4.778e-05,-0.0584383
4.779e-05,-0.0583822
4.781e-05,-0.0583404
4.782e-05,-0.0582347
4.784e-05,-0.0583913
4.786e-05,-0.0583835
4.787e-05,-0.0584931
4.789e-05,-0.058437
4.790e-05,-0.0582778
4.792e-05,-0.0583274
4.794e-05,-0.0582882
4.795e-05,-0.0584383
4.797e-05,-0.0583417
4.798e-05,-0.0583117
4.800e-05,-0.05827
4.802e-05,-0.0582647
4.803e-05,-0.0583378
4.805e-05,-0.058433
4.806e-05,-0.0583156
4.808e-05,-0.0583221
4.810e-05,-0.0582752
4.811e-05,-0.0582869
4.813e-05,-0.0583182
4.814e-05,-0.058236
4.816e-05,-0.0582021
4.818e-05,-0.0582543
4.819e-05,-0.0582504
4.821e-05,-0.0583013
4.822e-05,-0.0582517
4.824e-05,-0.058343
4.826e-05,-0.0581747
4.827e-05,-0.0582895
4.829e-05,-0.0582217
4.830e-05,-0.0582934
4.832e-05,-0.0581891
4.834e-05,-0.058133
4.835e-05,-0.0581969
4.837e-05,-0.0581669
4.838e-05,-0.0582569
4.840e-05,-0.0583378
4.842e-05,-0.0582921
4.843e-05,-0.0581982
4.845e-05,-0.0580938
4.846e-05,-0.0582282
4.848e-05,-0.0582673
4.850e-05,-0.0583482
4.851e-05,-0.0582439
4.853e-05,-0.0582021
4.854e-05,-0.0581799
4.856e-05,-0.0582112
4.858e-05,-0.0581434
4.859e-05,-0.0582739
4.861e-05,-0.0582621
4.862e-05,-0.0582595
4.864e-05,-0.0582921
4.866e-05,-0.0581734
4.867e-05,-0.0582282
4.869e-05,-0.0582412
4.870e-05,-0.058223
4.872e-05,-0.0583221
4.874e-05,-0.058163
4.875e-05,-0.0583339
4.877e-05,-0.0582517
4.878e-05,-0.0582543
4.880e-05,-0.0582908
4.882e-05,-0.0582634
4.883e-05,-0.0582634
4.885e-05,-0.0582139
4.886e-05,-0.0582843
4.888e-05,-0.058296
4.890e-05,-0.0583065
4.891e-05,-0.0582034
4.893e-05,-0.0583234
4.894e-05,-0.0582673
4.896e-05,-0.0582452
4.898e-05,-0.0583
4.899e-05,-0.0582582
4.901e-05,-0.0583117
4.902e-05,-0.0581943
4.904e-05,-0.0582739
4.906e-05,-0.0582269
4.907e-05,-0.0583117
4.909e-05,-0.0583848
4.910e-05,-0.0582752
4.912e-05,-0.0582373
4.914e-05,-0.0581812
4.915e-05,-0.0582752
4.917e-05,-0.0584226
4.918e-05,-0.0582647
4.920e-05,-0.0582752
4.922e-05,-0.0581982
4.923e-05,-0.0582673
4.925e-05,-0.0583
4.926e-05,-0.0582947
4.928e-05,-0.0583861
4.930e-05,-0.0582895
4.931e-05,-0.0583039
4.933e-05,-0.0583117
4.934e-05,-0.0582634
4.936e-05,-0.0582934
4.938e-05,-0.0583521
4.939e-05,-0.0581721
4.941e-05,-0.0582947
4.942e-05,-0.0582987
4.944e-05,-0.0583952
4.946e-05,-0.0583013
4.947e-05,-0.0583247
4.949e-05,-0.0582778
4.950e-05,-0.05827
4.952e-05,-0.058373
4.954e-05,-0.0582856
4.955e-05,-0.0582634
4.957e-05,-0.0583443
4.958e-05,-0.0582647
4.960e-05,-0.0584252
4.962e-05,-0.0583352
4.963e-05,-0.0583117
4.965e-05,-0.0582086
4.966e-05,-0.0582856
4.968e-05,-0.0583639
4.970e-05,-0.0583717
4.971e-05,-0.0583469
4.973e-05,-0.0582621
4.974e-05,-0.0582726
4.976e-05,-0.0583613
4.978e-05,-0.0583926
4.979e-05,-0.0583169
4.981e-05,-0.0582582
4.982e-05,-0.0583052
4.984e-05,-0.0582634
4.986e-05,-0.0583208
4.987e-05,-0.0583352
4.989e-05,-0.0583991
4.990e-05,-0.058296
4.992e-05,-0.0583013
4.994e-05,-0.0581617
4.995e-05,-0.0583482
4.997e-05,-0.0583861
4.998e-05,-0.0583835
5.000e-05,-0.0583104
5.002e-05,-0.0582073
5.003e-05,-0.0583417
5.005e-05,-0.0582882
5.006e-05,-0.0583665
5.008e-05,-0.0582921
5.010e-05,-0.0582465
5.011e-05,-0.0582987
5.013e-05,-0.0582726
5.014e-05,-0.0582921
5.016e-05,-0.0582308
5.018e-05,-0.0582426
5.019e-05,-0.0583378
5.021e-05,-0.0582517
5.022e-05,-0.0583326
5.024e-05,-0.058283
5.026e-05,-0.0583378
5.027e-05,-0.0583365
5.029e-05,-0.0583208
5.030e-05,-0.0582008
5.032e-05,-0.0582752
5.034e-05,-0.0582504
5.035e-05,-0.0583495
5.037e-05,-0.0582491
5.038e-05,-0.0582517
5.040e-05,-0.0581212
5.042e-05,-0.0583221
5.043e-05,-0.0583587
5.045e-05,-0.0583143
5.046e-05,-0.0582608
5.048e-05,-0.0581617
5.050e-05,-0.0582765
5.051e-05,-0.0582621
5.053e-05,-0.0581277
5.054e-05,-0.0582269
5.056e-05,-0.0581708
5.058e-05,-0.0582543
5.059e-05,-0.0582974
5.061e-05,-0.0582726
5.062e-05,-0.0581408
5.064e-05,-0.0582112
5.066e-05,-0.0582204
5.067e-05,-0.0582504
5.069e-05,-0.0582347
5.070e-05,-0.058193
5.072e-05,-0.058193
5.074e-05,-0.0581538
5.075e-05,-0.0581838
5.077e-05,-0.0581577
5.078e-05,-0.0581943
5.080e-05,-0.0582086
5.082e-05,-0.0581878
5.083e-05,-0.058193
5.085e-05,-0.0581851
5.086e-05,-0.0581917
5.088e-05,-0.0581982
