Model,TBS1102C
Firmware Version,v2015-08-04-prequal4ch70_v1.3

Point Format,Y
Horizontal Units,S
Horizontal Scale,2e-06
Sample Interval,1.6e-08
Filter Frequency,2e+08
Record Length,2000
Gating,0.0% to 100.0%
Probe Attenuation,1
Vertical Units,V
Vertical Offset,0
Vertical Scale,0.00695
Label,
TIME,CH1
2.968e-05,-0.0463989
2.970e-05,-0.0464119
2.971e-05,-0.0463619
2.973e-05,-0.0464542
2.974e-05,-0.0464151
2.976e-05,-0.0463999
2.978e-05,-0.046464
2.979e-05,-0.0463109
2.981e-05,-0.0465237
2.982e-05,-0.0465205
2.984e-05,-0.046552
2.986e-05,-0.0464716
2.987e-05,-0.0465085
2.989e-05,-0.0464553
2.990e-05,-0.0464586
2.992e-05,-0.046514
2.994e-05,-0.0465226
2.995e-05,-0.0465183
2.997e-05,-0.0464944
2.998e-05,-0.0463826
3.000e-05,-0.0465313
3.002e-05,-0.0465921
3.003e-05,-0.0465541
3.005e-05,-0.046527
3.006e-05,-0.0464618
3.008e-05,-0.0463815
3.010e-05,-0.046515
3.011e-05,-0.0466106
3.013e-05,-0.04654
3.014e-05,-0.0464358
3.016e-05,-0.0463858
3.018e-05,-0.0464423
3.019e-05,-0.0464966
3.021e-05,-0.0465552
3.022e-05,-0.0466399
3.024e-05,-0.0464021
3.026e-05,-0.0464716
3.027e-05,-0.0463771
3.029e-05,-0.04654
3.030e-05,-0.0464966
3.032e-05,-0.0464293
3.034e-05,-0.0465031
3.035e-05,-0.0465498
3.037e-05,-0.0465053
3.038e-05,-0.046439
3.040e-05,-0.0464825
3.042e-05,-0.0463641
3.043e-05,-0.0464673
3.045e-05,-0.0464662
3.046e-05,-0.0464738
3.048e-05,-0.0464151
3.050e-05,-0.046312
3.051e-05,-0.0464705
3.053e-05,-0.0464597
3.054e-05,-0.0464358
3.056e-05,-0.0464618
3.058e-05,-0.046376
3.059e-05,-0.0464455
3.061e-05,-0.0463359
3.062e-05,-0.0464217
3.064e-05,-0.0464553
3.066e-05,-0.0464065
3.067e-05,-0.0464282
3.069e-05,-0.0463413
3.070e-05,-0.0464857
3.072e-05,-0.0464271
3.074e-05,-0.0462566
3.075e-05,-0.0463902
3.077e-05,-0.0462251
3.078e-05,-0.0464434
3.080e-05,-0.046376
3.082e-05,-0.0464021
3.083e-05,-0.0463294
3.085e-05,-0.0462533
3.086e-05,-0.0464086
3.088e-05,-0.0463315
3.090e-05,-0.0463304
3.091e-05,-0.0463435
3.093e-05,-0.0462088
3.094e-05,-0.0463163
3.096e-05,-0.0462251
3.098e-05,-0.0463294
3.099e-05,-0.0463641
3.101e-05,-0.046325
3.102e-05,-0.0462316
3.104e-05,-0.0462827
3.106e-05,-0.0463141
3.107e-05,-0.046274
3.109e-05,-0.0462381
3.110e-05,-0.0462599
3.112e-05,-0.0462707
3.114e-05,-0.0462512
3.115e-05,-0.0462425
3.117e-05,-0.0463402
3.118e-05,-0.0462153
3.120e-05,-0.0461882
3.122e-05,-0.046161
3.123e-05,-0.0461632
3.125e-05,-0.0462121
3.126e-05,-0.0461665
3.128e-05,-0.046262
3.130e-05,-0.0462349
3.131e-05,-0.0462175
3.133e-05,-0.0462218
3.134e-05,-0.0462609
3.136e-05,-0.0462446
3.138e-05,-0.0461241
3.139e-05,-0.0461838
3.141e-05,-0.0462153
3.142e-05,-0.0461035
3.144e-05,-0.0461523
3.146e-05,-0.0461817
3.147e-05,-0.0461534
3.149e-05,-0.0460948
3.150e-05,-0.0460579
3.152e-05,-0.0461143
3.154e-05,-0.0462403
3.155e-05,-0.0462479
3.157e-05,-0.0461654
3.158e-05,-0.045946
3.160e-05,-0.046022
3.162e-05,-0.0460948
3.163e-05,-0.0461176
3.165e-05,-0.0461437
3.166e-05,-0.0460763
3.168e-05,-0.0459981
3.170e-05,-0.0460318
3.171e-05,-0.0460123
3.173e-05,-0.0461882
3.174e-05,-0.0460915
3.176e-05,-0.046098
3.178e-05,-0.0459623
3.179e-05,-0.045971
3.181e-05,-0.0460546
3.182e-05,-0.0460014
3.184e-05,-0.0460796
3.186e-05,-0.046022
3.187e-05,-0.046059
3.189e-05,-0.0460926
3.190e-05,-0.0459026
3.192e-05,-0.0459623
3.194e-05,-0.0459775
3.195e-05,-0.0461165
3.197e-05,-0.0461708
3.198e-05,-0.0460144
3.200e-05,-0.0460177
3.202e-05,-0.0460698
3.203e-05,-0.0460437
3.205e-05,-0.04611
3.206e-05,-0.0460036
3.208e-05,-0.0460036
3.210e-05,-0.0459699
3.211e-05,-0.0461447
3.213e-05,-0.0460285
3.214e-05,-0.0460166
3.216e-05,-0.0459905
3.218e-05,-0.0460296
3.219e-05,-0.0460991
3.221e-05,-0.0460796
3.222e-05,-0.0462099
3.224e-05,-0.0460828
3.226e-05,-0.0460807
3.227e-05,-0.0460101
3.229e-05,-0.0460199
3.230e-05,-0.0461675
3.232e-05,-0.0461404
3.234e-05,-0.0460807
3.235e-05,-0.0460557
3.237e-05,-0.0460112
3.238e-05,-0.046186
3.240e-05,-0.0461589
3.242e-05,-0.0461654
3.243e-05,-0.0461219
3.245e-05,-0.046059
3.246e-05,-0.0461741
3.248e-05,-0.0461143
3.250e-05,-0.0461849
3.251e-05,-0.0461686
3.253e-05,-0.0461111
3.254e-05,-0.0462251
3.256e-05,-0.0460937
3.258e-05,-0.0461361
3.259e-05,-0.0461447
3.261e-05,-0.0462132
3.262e-05,-0.0462468
3.264e-05,-0.0461089
3.266e-05,-0.0461306
3.267e-05,-0.0461914
3.269e-05,-0.0462316
3.270e-05,-0.0461632
3.272e-05,-0.0460264
3.274e-05,-0.0461773
3.275e-05,-0.0461632
3.277e-05,-0.0462077
3.278e-05,-0.0462675
3.280e-05,-0.0461447
3.282e-05,-0.0461751
3.283e-05,-0.0460427
3.285e-05,-0.0461969
3.286e-05,-0.0462381
3.288e-05,-0.0461067
3.290e-05,-0.04606
3.291e-05,-0.0461013
3.293e-05,-0.0461382
3.294e-05,-0.0462436
3.296e-05,-0.0461936
3.298e-05,-0.0461827
3.299e-05,-0.0460731
3.301e-05,-0.046161
3.302e-05,-0.0461697
3.304e-05,-0.0461426
3.306e-05,-0.0461306
3.307e-05,-0.0460763
3.309e-05,-0.0461361
3.310e-05,-0.0461415
3.312e-05,-0.0461122
3.314e-05,-0.0461154
3.315e-05,-0.0460839
3.317e-05,-0.0462284
3.318e-05,-0.0461969
3.320e-05,-0.0462262
3.322e-05,-0.0460698
3.323e-05,-0.0458939
3.325e-05,-0.0461122
3.326e-05,-0.0460904
3.328e-05,-0.046274
3.330e-05,-0.0461773
3.331e-05,-0.0460666
3.333e-05,-0.0461904
3.334e-05,-0.0461317
3.336e-05,-0.0463131
3.338e-05,-0.0461643
3.339e-05,-0.0461404
3.341e-05,-0.0461274
3.342e-05,-0.0460568
3.344e-05,-0.0461936
3.346e-05,-0.0461708
3.347e-05,-0.0461122
3.349e-05,-0.0462153
3.350e-05,-0.046161
3.352e-05,-0.0461882
3.354e-05,-0.0461817
3.355e-05,-0.0462729
3.357e-05,-0.0462859
3.358e-05,-0.0462218
3.360e-05,-0.0461556
3.362e-05,-0.0461589
3.363e-05,-0.046072
3.365e-05,-0.0463446
3.366e-05,-0.0462566
3.368e-05,-0.0462968
3.370e-05,-0.0461936
3.371e-05,-0.0462642
3.373e-05,-0.0462251
3.374e-05,-0.046161
3.376e-05,-0.0462012
3.378e-05,-0.0462175
3.379e-05,-0.0462935
3.381e-05,-0.0463608
3.382e-05,-0.0463554
3.384e-05,-0.0462653
3.386e-05,-0.0462034
3.387e-05,-0.0463304
3.389e-05,-0.0463315
3.390e-05,-0.0463196
3.392e-05,-0.0462403
3.394e-05,-0.046274
3.395e-05,-0.0463315
3.397e-05,-0.0463098
3.398e-05,-0.0463587
3.400e-05,-0.0464195
3.402e-05,-0.0463304
3.403e-05,-0.0462761
3.405e-05,-0.0463033
3.406e-05,-0.0463283
3.408e-05,-0.0463771
3.410e-05,-0.0463793
3.411e-05,-0.04635
3.413e-05,-0.0463543
3.414e-05,-0.0464217
3.416e-05,-0.0464184
3.418e-05,-0.0464097
3.419e-05,-0.0463652
3.421e-05,-0.0463185
3.422e-05,-0.0464781
3.424e-05,-0.0464086
3.426e-05,-0.0464336
3.427e-05,-0.0463717
3.429e-05,-0.0463858
3.430e-05,-0.0465498
3.432e-05,-0.0464108
3.434e-05,-0.0465313
3.435e-05,-0.046426
3.437e-05,-0.0463923
3.438e-05,-0.0464705
3.440e-05,-0.0464716
3.442e-05,-0.0465335
3.443e-05,-0.0464814
3.445e-05,-0.0464412
3.446e-05,-0.0465531
3.448e-05,-0.0463999
3.450e-05,-0.0465607
3.451e-05,-0.0464998
3.453e-05,-0.0465313
3.454e-05,-0.0464922
3.456e-05,-0.0465661
3.458e-05,-0.0465476
3.459e-05,-0.0465129
3.461e-05,-0.046552
3.462e-05,-0.0465324
3.464e-05,-0.0464977
3.466e-05,-0.0465379
3.467e-05,-0.0465845
3.469e-05,-0.0465205
3.470e-05,-0.0465237
3.472e-05,-0.0464607
3.474e-05,-0.0465715
3.475e-05,-0.0466953
3.477e-05,-0.0466084
3.478e-05,-0.0465498
3.480e-05,-0.0465096
3.482e-05,-0.046527
3.483e-05,-0.0465357
3.485e-05,-0.0465346
3.486e-05,-0.0466421
3.488e-05,-0.046654
3.490e-05,-0.0466454
3.491e-05,-0.0465444
3.493e-05,-0.0465281
3.494e-05,-0.0465683
3.496e-05,-0.0465889
3.498e-05,-0.0466052
3.499e-05,-0.046653
3.501e-05,-0.0465748
3.502e-05,-0.0464868
3.504e-05,-0.0465878
3.506e-05,-0.0465639
3.507e-05,-0.0465585
3.509e-05,-0.0466834
3.510e-05,-0.0465976
3.512e-05,-0.0466606
3.514e-05,-0.0465835
3.515e-05,-0.0465085
3.517e-05,-0.0465607
3.518e-05,-0.046578
3.520e-05,-0.046679
3.522e-05,-0.046489
3.523e-05,-0.0465748
3.525e-05,-0.0465813
3.526e-05,-0.0465683
3.528e-05,-0.0467051
3.530e-05,-0.0465346
3.531e-05,-0.0465411
3.533e-05,-0.046565
3.534e-05,-0.0465411
3.536e-05,-0.046654
3.538e-05,-0.0466236
3.539e-05,-0.0466692
3.541e-05,-0.0464618
3.542e-05,-0.0465216
3.544e-05,-0.0465911
3.546e-05,-0.0465639
3.547e-05,-0.0467518
3.549e-05,-0.0466041
3.550e-05,-0.0465693
3.552e-05,-0.0465737
3.554e-05,-0.0465259
3.555e-05,-0.0466193
3.557e-05,-0.0466117
3.558e-05,-0.0466519
3.560e-05,-0.0465118
3.562e-05,-0.0464738
3.563e-05,-0.0464857
3.565e-05,-0.0465878
3.566e-05,-0.0465813
3.568e-05,-0.046527
3.570e-05,-0.0465704
3.571e-05,-0.0465216
3.573e-05,-0.0465183
3.574e-05,-0.0464944
3.576e-05,-0.0465802
3.578e-05,-0.0465856
3.579e-05,-0.0465368
3.581e-05,-0.046451
3.582e-05,-0.0464293
3.584e-05,-0.0465552
3.586e-05,-0.0466236
3.587e-05,-0.0465563
3.589e-05,-0.0464879
3.590e-05,-0.0465357
3.592e-05,-0.0465324
3.594e-05,-0.046641
3.595e-05,-0.0465628
3.597e-05,-0.0465433
3.598e-05,-0.0465357
3.600e-05,-0.04654
3.602e-05,-0.0465987
3.603e-05,-0.0465802
3.605e-05,-0.0465574
3.606e-05,-0.0465292
3.608e-05,-0.0464282
3.610e-05,-0.0465737
3.611e-05,-0.0465433
3.613e-05,-0.0466475
3.614e-05,-0.0466486
3.616e-05,-0.0464792
3.618e-05,-0.0465704
3.619e-05,-0.0466258
3.621e-05,-0.046654
3.622e-05,-0.0466508
3.624e-05,-0.04659
3.626e-05,-0.0464249
3.627e-05,-0.0465617
3.629e-05,-0.0465911
3.630e-05,-0.046628
3.632e-05,-0.0466074
3.634e-05,-0.0465389
3.635e-05,-0.0466171
3.637e-05,-0.0466204
3.638e-05,-0.0467387
3.640e-05,-0.046666
3.642e-05,-0.0467029
3.643e-05,-0.0467029
3.645e-05,-0.046641
3.646e-05,-0.0467681
3.648e-05,-0.046679
3.650e-05,-0.0466975
3.651e-05,-0.046527
3.653e-05,-0.0467029
3.654e-05,-0.0466573
3.656e-05,-0.0467648
3.658e-05,-0.0467409
3.659e-05,-0.0466877
3.661e-05,-0.0467138
3.662e-05,-0.0466779
3.664e-05,-0.046793
3.666e-05,-0.0467854
3.667e-05,-0.0466692
3.669e-05,-0.0467757
3.670e-05,-0.0467366
3.672e-05,-0.04678
3.674e-05,-0.0466964
3.675e-05,-0.0467833
3.677e-05,-0.0467757
3.678e-05,-0.0467898
3.680e-05,-0.0467963
3.682e-05,-0.0467062
3.683e-05,-0.0467377
3.685e-05,-0.0467909
3.686e-05,-0.0468734
3.688e-05,-0.0467355
3.690e-05,-0.0467062
3.691e-05,-0.0467952
3.693e-05,-0.0467648
3.694e-05,-0.046906
3.696e-05,-0.0468213
3.698e-05,-0.0467159
3.699e-05,-0.0468148
3.701e-05,-0.0467257
3.702e-05,-0.0468886
3.704e-05,-0.0469375
3.706e-05,-0.0467909
3.707e-05,-0.0468397
3.709e-05,-0.0468039
3.710e-05,-0.046818
3.712e-05,-0.046893
3.714e-05,-0.0468202
3.715e-05,-0.0469255
3.717e-05,-0.0468517
3.718e-05,-0.0469679
3.720e-05,-0.0468777
3.722e-05,-0.0468701
3.723e-05,-0.0468658
3.725e-05,-0.0468647
3.726e-05,-0.0468723
3.728e-05,-0.047096
3.730e-05,-0.0468636
3.731e-05,-0.0469201
3.733e-05,-0.0468582
3.734e-05,-0.0469538
3.736e-05,-0.0469407
3.738e-05,-0.0469733
3.739e-05,-0.0468875
3.741e-05,-0.046969
3.742e-05,-0.0468777
3.744e-05,-0.0469027
3.746e-05,-0.046932
3.747e-05,-0.0470091
3.749e-05,-0.0469364
3.750e-05,-0.0469212
3.752e-05,-0.0469331
3.754e-05,-0.046957
3.755e-05,-0.0469679
3.757e-05,-0.0469331
3.758e-05,-0.0469657
3.760e-05,-0.0470178
3.762e-05,-0.0469939
3.763e-05,-0.0469082
3.765e-05,-0.0470113
3.766e-05,-0.0468908
3.768e-05,-0.047007
3.770e-05,-0.0469907
3.771e-05,-0.0469983
3.773e-05,-0.0469885
3.774e-05,-0.046944
3.776e-05,-0.0468506
3.778e-05,-0.0470341
3.779e-05,-0.0470146
3.781e-05,-0.0471123
3.782e-05,-0.046919
3.784e-05,-0.0469103
3.786e-05,-0.0470428
3.787e-05,-0.0470548
3.789e-05,-0.0471134
3.790e-05,-0.04702
3.792e-05,-0.0469646
3.794e-05,-0.0470645
3.795e-05,-0.0469592
3.797e-05,-0.04707
3.798e-05,-0.0470233
3.800e-05,-0.0470048
3.802e-05,-0.0470504
3.803e-05,-0.0470396
3.805e-05,-0.0470558
3.806e-05,-0.0469972
3.808e-05,-0.0470233
3.810e-05,-0.0470765
3.811e-05,-0.0470048
3.813e-05,-0.0470287
3.814e-05,-0.0470515
3.816e-05,-0.0470624
3.818e-05,-0.0471069
3.819e-05,-0.0470309
3.821e-05,-0.0470406
3.822e-05,-0.0470113
3.824e-05,-0.0470265
3.826e-05,-0.0470417
3.827e-05,-0.0470558
3.829e-05,-0.0471416
3.830e-05,-0.0470287
3.832e-05,-0.0469983
3.834e-05,-0.0470081
3.835e-05,-0.0471015
3.837e-05,-0.0471319
3.838e-05,-0.0470884
3.840e-05,-0.0469907
3.842e-05,-0.0470178
3.843e-05,-0.0470591
3.845e-05,-0.0471177
3.846e-05,-0.0471623
3.848e-05,-0.0470841
3.850e-05,-0.0469831
3.851e-05,-0.0470309
3.853e-05,-0.0470244
3.854e-05,-0.047134
3.856e-05,-0.04707
3.858e-05,-0.0471015
3.859e-05,-0.0471025
3.861e-05,-0.0471557
3.862e-05,-0.0471384
3.864e-05,-0.0470537
3.866e-05,-0.0470222
3.867e-05,-0.0471275
3.869e-05,-0.047083
3.870e-05,-0.0471644
3.872e-05,-0.0470602
3.874e-05,-0.0470309
3.875e-05,-0.0471818
3.877e-05,-0.0471091
3.878e-05,-0.0471666
3.880e-05,-0.0472774
3.882e-05,-0.0471742
3.883e-05,-0.0471416
3.885e-05,-0.0470352
3.886e-05,-0.0471959
3.888e-05,-0.0472394
3.890e-05,-0.0472719
3.891e-05,-0.04726
3.893e-05,-0.0471503
3.894e-05,-0.047311
3.896e-05,-0.0472242
3.898e-05,-0.0473219
3.899e-05,-0.0472491
3.901e-05,-0.0472589
3.902e-05,-0.0473404
3.904e-05,-0.0473165
3.906e-05,-0.047336
3.907e-05,-0.0473729
3.909e-05,-0.0473284
3.910e-05,-0.0473892
3.912e-05,-0.0474555
3.914e-05,-0.0473936
3.915e-05,-0.0474804
3.917e-05,-0.0474696
3.918e-05,-0.0474544
3.920e-05,-0.0475152
3.922e-05,-0.0475087
3.923e-05,-0.0475163
3.925e-05,-0.0475163
3.926e-05,-0.047614
3.928e-05,-0.0476444
3.930e-05,-0.0476303
3.931e-05,-0.0476716
3.933e-05,-0.0476661
3.934e-05,-0.0477237
3.936e-05,-0.0477519
3.938e-05,-0.0477389
3.939e-05,-0.0477541
3.941e-05,-0.0477248
3.942e-05,-0.0477965
3.944e-05,-0.0478117
3.946e-05,-0.0479105
3.947e-05,-0.0478388
3.949e-05,-0.0479126
3.950e-05,-0.047917
3.952e-05,-0.0478627
3.954e-05,-0.0479094
3.955e-05,-0.0479626
3.957e-05,-0.0480451
3.958e-05,-0.0479192
3.960e-05,-0.0480516
3.962e-05,-0.0480712
3.963e-05,-0.0480831
3.965e-05,-0.0481678
3.966e-05,-0.0481309
3.968e-05,-0.048081
3.970e-05,-0.0481429
3.971e-05,-0.0480332
3.973e-05,-0.0482059
3.974e-05,-0.0482211
3.976e-05,-0.0482569
3.978e-05,-0.0482015
3.979e-05,-0.0481841
3.981e-05,-0.0482667
3.982e-05,-0.0483264
3.984e-05,-0.0482895
3.986e-05,-0.0484241
3.987e-05,-0.048284
3.989e-05,-0.0484839
3.990e-05,-0.0484198
3.992e-05,-0.0484969
3.994e-05,-0.0484524
3.995e-05,-0.0484372
3.997e-05,-0.0484741
3.998e-05,-0.0485251
4.000e-05,-0.0485088
4.002e-05,-0.0485425
4.003e-05,-0.0485599
4.005e-05,-0.0485305
4.006e-05,-0.0486033
4.008e-05,-0.0486543
4.010e-05,-0.048701
4.011e-05,-0.0486576
4.013e-05,-0.048561
4.014e-05,-0.0486771
4.016e-05,-0.048751
4.018e-05,-0.0487988
4.019e-05,-0.0487575
4.021e-05,-0.0486674
4.022e-05,-0.0487955
4.024e-05,-0.0487955
4.026e-05,-0.0488607
4.027e-05,-0.0488433
4.029e-05,-0.0487879
4.030e-05,-0.0489095
4.032e-05,-0.0488639
4.034e-05,-0.0488802
4.035e-05,-0.04908
4.037e-05,-0.0490181
4.038e-05,-0.0489932
4.040e-05,-0.0489258
4.042e-05,-0.0490594
4.043e-05,-0.0490496
4.045e-05,-0.0491702
4.046e-05,-0.0491962
4.048e-05,-0.049155
4.050e-05,-0.0491582
4.051e-05,-0.0492288
4.053e-05,-0.0491191
4.054e-05,-0.0493385
4.056e-05,-0.0491615
4.058e-05,-0.0493102
4.059e-05,-0.0493461
4.061e-05,-0.0493874
4.062e-05,-0.0494036
4.064e-05,-0.0494178
4.066e-05,-0.0494569
4.067e-05,-0.0496067
4.069e-05,-0.049535
4.070e-05,-0.04961
4.072e-05,-0.0495231
4.074e-05,-0.0497066
4.075e-05,-0.0497761
4.077e-05,-0.0496958
4.078e-05,-0.0496393
4.080e-05,-0.0497913
4.082e-05,-0.0497305
4.083e-05,-0.0500454
4.085e-05,-0.0499281
4.086e-05,-0.0500389
4.088e-05,-0.0498673
4.090e-05,-0.0498728
4.091e-05,-0.0500031
4.093e-05,-0.0500205
4.094e-05,-0.0501366
4.096e-05,-0.0501019
4.098e-05,-0.0501486
4.099e-05,-0.0501779
4.101e-05,-0.0501236
4.102e-05,-0.0503462
4.104e-05,-0.050293
4.106e-05,-0.0503278
4.107e-05,-0.0503191
4.109e-05,-0.0503473
4.110e-05,-0.0504603
4.112e-05,-0.0505689
4.114e-05,-0.0505993
4.115e-05,-0.0505428
4.117e-05,-0.0505721
4.118e-05,-0.0504863
4.120e-05,-0.0506297
4.122e-05,-0.0506894
4.123e-05,-0.0505993
4.125e-05,-0.0507209
4.126e-05,-0.0508306
4.128e-05,-0.0508946
4.130e-05,-0.0510184
4.131e-05,-0.050861
4.133e-05,-0.0507893
4.134e-05,-0.0507947
4.136e-05,-0.0510141
4.138e-05,-0.0509978
4.139e-05,-0.0512096
4.141e-05,-0.0510858
4.142e-05,-0.0512009
4.144e-05,-0.0510977
4.146e-05,-0.0512324
4.147e-05,-0.0512617
4.149e-05,-0.0514115
4.150e-05,-0.051215
4.152e-05,-0.0513529
4.154e-05,-0.0513681
4.155e-05,-0.0515549
4.157e-05,-0.051556
4.158e-05,-0.0515223
4.160e-05,-0.0514463
4.162e-05,-0.0515668
4.163e-05,-0.0516461
4.165e-05,-0.0518676
4.166e-05,-0.0517178
4.168e-05,-0.0518416
4.170e-05,-0.0517536
4.171e-05,-0.0518307
4.173e-05,-0.0520055
4.174e-05,-0.0520794
4.176e-05,-0.052037
4.178e-05,-0.0519697
4.179e-05,-0.0519806
4.181e-05,-0.0520468
4.182e-05,-0.0522097
4.184e-05,-0.0522738
4.186e-05,-0.0523096
4.187e-05,-0.0522792
4.189e-05,-0.0522401
4.190e-05,-0.0523661
4.192e-05,-0.0524356
4.194e-05,-0.05258
4.195e-05,-0.0524725
4.197e-05,-0.0525029
4.198e-05,-0.0525594
4.200e-05,-0.052593
4.202e-05,-0.0527755
4.203e-05,-0.052744
4.205e-05,-0.05282
4.206e-05,-0.0527266
4.208e-05,-0.0527396
4.210e-05,-0.0528243
4.211e-05,-0.0529395
4.213e-05,-0.0529872
4.214e-05,-0.0530144
4.216e-05,-0.0529927
4.218e-05,-0.0530111
4.219e-05,-0.0530947
4.221e-05,-0.0531523
4.222e-05,-0.0532055
4.224e-05,-0.0532587
4.226e-05,-0.0532511
4.227e-05,-0.0532989
4.229e-05,-0.0532815
4.230e-05,-0.053465
4.232e-05,-0.0534042
4.234e-05,-0.05354
4.235e-05,-0.0536214
4.237e-05,-0.0536334
4.238e-05,-0.0536095
4.240e-05,-0.053705
4.242e-05,-0.0537387
4.243e-05,-0.0538093
4.245e-05,-0.0536887
4.246e-05,-0.0538484
4.248e-05,-0.0538419
4.250e-05,-0.0539722
4.251e-05,-0.0539657
4.253e-05,-0.0540721
4.254e-05,-0.0541481
4.256e-05,-0.0541068
4.258e-05,-0.0541894
4.259e-05,-0.0543273
4.261e-05,-0.0542828
4.262e-05,-0.0544446
4.264e-05,-0.0543588
4.266e-05,-0.0544294
4.267e-05,-0.0544837
4.269e-05,-0.0545705
4.270e-05,-0.0545694
4.272e-05,-0.0546172
4.274e-05,-0.0548431
4.275e-05,-0.0547921
4.277e-05,-0.0547855
4.278e-05,-0.0549169
4.280e-05,-0.0548496
4.282e-05,-0.0551016
4.283e-05,-0.0550451
4.285e-05,-0.055196
4.286e-05,-0.0552134
4.288e-05,-0.0552167
4.290e-05,-0.0552406
4.291e-05,-0.0553491
4.293e-05,-0.0554849
4.294e-05,-0.055461
4.296e-05,-0.0555131
4.298e-05,-0.0556347
4.299e-05,-0.0556467
4.301e-05,-0.0558965
4.302e-05,-0.0558237
4.304e-05,-0.0559225
4.306e-05,-0.0559073
4.307e-05,-0.0560279
4.309e-05,-0.056206
4.310e-05,-0.056131
4.312e-05,-0.0561332
4.314e-05,-0.0561473
4.315e-05,-0.0563515
4.317e-05,-0.0564362
4.318e-05,-0.0564459
4.320e-05,-0.0565361
4.322e-05,-0.0565361
4.323e-05,-0.0566251
4.325e-05,-0.0568271
4.326e-05,-0.0567218
4.328e-05,-0.0568228
4.330e-05,-0.056801
4.331e-05,-0.0570356
4.333e-05,-0.0569933
4.334e-05,-0.0571257
4.336e-05,-0.0570476
4.338e-05,-0.0571637
4.339e-05,-0.0572224
4.341e-05,-0.057394
4.342e-05,-0.0572951
4.344e-05,-0.0574635
4.346e-05,-0.0574146
4.347e-05,-0.0575634
4.349e-05,-0.0575493
4.350e-05,-0.0576122
4.352e-05,-0.0577263
4.354e-05,-0.0577979
4.355e-05,-0.057774
4.357e-05,-0.0578403
4.358e-05,-0.057698
4.360e-05,-0.0579739
4.362e-05,-0.0579282
4.363e-05,-0.0581139
4.365e-05,-0.0580759
4.366e-05,-0.0581074
4.368e-05,-0.0581606
4.370e-05,-0.0582095
4.371e-05,-0.0582258
4.373e-05,-0.05843
4.374e-05,-0.0582953
4.376e-05,-0.0583507
4.378e-05,-0.0584647
4.379e-05,-0.0585407
4.381e-05,-0.0585657
4.382e-05,-0.0586178
4.384e-05,-0.0585983
4.386e-05,-0.058645
4.387e-05,-0.058746
4.389e-05,-0.058822
4.390e-05,-0.0589501
4.392e-05,-0.0589197
4.394e-05,-0.05881
4.395e-05,-0.0588187
4.397e-05,-0.059088
4.398e-05,-0.0590913
4.400e-05,-0.0591792
4.402e-05,-0.0590761
4.403e-05,-0.0591738
4.405e-05,-0.0591771
4.406e-05,-0.059264
4.408e-05,-0.0592075
4.410e-05,-0.0594312
4.411e-05,-0.0593389
4.413e-05,-0.0594681
4.414e-05,-0.059429
4.416e-05,-0.0595213
4.418e-05,-0.0594768
4.419e-05,-0.0596212
4.421e-05,-0.0595691
4.422e-05,-0.0596147
4.424e-05,-0.0596288
4.426e-05,-0.0598601
4.427e-05,-0.0597689
4.429e-05,-0.05982
4.430e-05,-0.059707
4.432e-05,-0.0598742
4.434e-05,-0.059922
4.435e-05,-0.0599937
4.437e-05,-0.0598829
4.438e-05,-0.0599655
4.440e-05,-0.0599557
4.442e-05,-0.060048
4.443e-05,-0.0600502
4.445e-05,-0.0602207
4.446e-05,-0.0601522
4.448e-05,-0.0601968
4.450e-05,-0.0601859
4.451e-05,-0.0601935
4.453e-05,-0.0603358
4.454e-05,-0.0603336
4.456e-05,-0.0604009
4.458e-05,-0.0604368
4.459e-05,-0.0604357
4.461e-05,-0.0604867
4.462e-05,-0.0605019
4.464e-05,-0.0605508
4.466e-05,-0.0605638
4.467e-05,-0.0606268
4.469e-05,-0.0605986
4.470e-05,-0.0606311
4.472e-05,-0.0606485
4.474e-05,-0.0607061
4.475e-05,-0.060793
4.477e-05,-0.0608299
4.478e-05,-0.060819
4.480e-05,-0.0607028
4.482e-05,-0.0607984
4.483e-05,-0.0609634
4.485e-05,-0.0608809
4.486e-05,-0.0609091
4.488e-05,-0.0609613
4.490e-05,-0.0609906
4.491e-05,-0.061034
4.493e-05,-0.0610232
4.494e-05,-0.0611068
4.496e-05,-0.061071
4.498e-05,-0.0611068
4.499e-05,-0.0610427
4.501e-05,-0.0610938
4.502e-05,-0.0610514
4.504e-05,-0.0612089
4.506e-05,-0.0610905
4.507e-05,-0.0610981
4.509e-05,-0.061223
4.510e-05,-0.0612338
4.512e-05,-0.0612273
4.514e-05,-0.0612653
4.515e-05,-0.0611969
4.517e-05,-0.0613946
4.518e-05,-0.0612078
4.520e-05,-0.0613033
4.522e-05,-0.0612501
4.523e-05,-0.0613696
4.525e-05,-0.0612697
4.526e-05,-0.0613348
4.528e-05,-0.0613294
4.530e-05,-0.0613077
4.531e-05,-0.0613229
4.533e-05,-0.0613479
4.534e-05,-0.0613566
4.536e-05,-0.0613587
4.538e-05,-0.061349
4.539e-05,-0.0614337
4.541e-05,-0.0613468
4.542e-05,-0.0613576
4.544e-05,-0.0611709
4.546e-05,-0.0613826
4.547e-05,-0.0614217
4.549e-05,-0.0614966
4.550e-05,-0.0613359
4.552e-05,-0.0613272
4.554e-05,-0.0612024
4.555e-05,-0.061362
4.557e-05,-0.0613511
4.558e-05,-0.0614174
4.560e-05,-0.0613055
4.562e-05,-0.0613131
4.563e-05,-0.0611839
4.565e-05,-0.0613848
4.566e-05,-0.06135
4.568e-05,-0.0613012
4.570e-05,-0.0611372
4.571e-05,-0.061173
4.573e-05,-0.0613012
4.574e-05,-0.0612501
4.576e-05,-0.0612751
4.578e-05,-0.0612816
4.579e-05,-0.0611643
4.581e-05,-0.0610655
4.582e-05,-0.0611871
4.584e-05,-0.0612186
4.586e-05,-0.0612056
4.587e-05,-0.0610796
4.589e-05,-0.0610395
4.590e-05,-0.0609971
4.592e-05,-0.0610492
4.594e-05,-0.0610775
4.595e-05,-0.0610916
4.597e-05,-0.0609113
4.598e-05,-0.0610015
4.600e-05,-0.0609526
4.602e-05,-0.0610579
4.603e-05,-0.0609081
4.605e-05,-0.0608907
4.606e-05,-0.0608364
4.608e-05,-0.0608831
4.610e-05,-0.0609309
4.611e-05,-0.060907
4.613e-05,-0.0606952
4.614e-05,-0.0607777
4.616e-05,-0.0607028
4.618e-05,-0.0607919
4.619e-05,-0.0607615
4.621e-05,-0.06068
4.622e-05,-0.0605454
4.624e-05,-0.0605779
4.626e-05,-0.0606116
4.627e-05,-0.0606702
4.629e-05,-0.0605595
4.630e-05,-0.0605627
4.632e-05,-0.0604129
4.634e-05,-0.0605812
4.635e-05,-0.0603499
4.637e-05,-0.0604574
4.638e-05,-0.0603434
4.640e-05,-0.0604281
4.642e-05,-0.0603727
4.643e-05,-0.0603499
4.645e-05,-0.0602598
4.646e-05,-0.0602011
4.648e-05,-0.0601924
4.650e-05,-0.0602565
4.651e-05,-0.0601772
4.653e-05,-0.0602109
4.654e-05,-0.0601251
4.656e-05,-0.0600545
4.658e-05,-0.0600773
4.659e-05,-0.0600295
4.661e-05,-0.0599709
4.662e-05,-0.0599416
4.664e-05,-0.0599405
4.666e-05,-0.0599133
4.667e-05,-0.0599264
4.669e-05,-0.0597667
4.670e-05,-0.0597429
4.672e-05,-0.0597483
4.674e-05,-0.0597461
4.675e-05,-0.0597266
4.677e-05,-0.0597559
4.678e-05,-0.0595365
4.680e-05,-0.0594963
4.682e-05,-0.059467
4.683e-05,-0.059542
4.685e-05,-0.0595191
4.686e-05,-0.0595539
4.688e-05,-0.0594008
4.690e-05,-0.0593487
4.691e-05,-0.0592498
4.693e-05,-0.0592531
4.694e-05,-0.0592064
4.696e-05,-0.0592564
4.698e-05,-0.0591152
4.699e-05,-0.0592227
4.701e-05,-0.0589697
4.702e-05,-0.0589653
4.704e-05,-0.0588904
4.706e-05,-0.0589425
4.707e-05,-0.058886
4.709e-05,-0.058772
4.710e-05,-0.0587329
4.712e-05,-0.0587308
4.714e-05,-0.0586363
4.715e-05,-0.0585798
4.717e-05,-0.0584853
4.718e-05,-0.0585027
4.720e-05,-0.0584462
4.722e-05,-0.0584452
4.723e-05,-0.0583398
4.725e-05,-0.058191
4.726e-05,-0.0582062
4.728e-05,-0.0581672
4.730e-05,-0.0581422
4.731e-05,-0.0581172
4.733e-05,-0.0579967
4.734e-05,-0.0580727
4.736e-05,-0.057887
4.738e-05,-0.0578533
4.739e-05,-0.0577871
4.741e-05,-0.0577469
4.742e-05,-0.0577882
4.744e-05,-0.0576383
4.746e-05,-0.0575981
4.747e-05,-0.0575319
4.749e-05,-0.0574537
4.750e-05,-0.057344
4.752e-05,-0.0573744
4.754e-05,-0.0574016
4.755e-05,-0.0572995
4.757e-05,-0.0571323
4.758e-05,-0.0571019
4.760e-05,-0.0570465
4.762e-05,-0.0571062
4.763e-05,-0.0569042
4.765e-05,-0.0569531
4.766e-05,-0.0568369
4.768e-05,-0.0566849
4.770e-05,-0.0566892
4.771e-05,-0.0566772
4.773e-05,-0.0565849
4.774e-05,-0.0565958
4.776e-05,-0.0564557
4.778e-05,-0.0564557
4.779e-05,-0.0564307
4.781e-05,-0.0563721
4.782e-05,-0.0562972
4.784e-05,-0.0562288
4.786e-05,-0.0561115
4.787e-05,-0.0561745
4.789e-05,-0.0560615
4.790e-05,-0.0560355
4.792e-05,-0.0558954
4.794e-05,-0.055967
4.795e-05,-0.0557955
4.797e-05,-0.0556869
4.798e-05,-0.0556543
4.800e-05,-0.0557075
4.802e-05,-0.0556912
4.803e-05,-0.0555598
4.805e-05,-0.0553763
4.806e-05,-0.0553958
4.808e-05,-0.055461
4.810e-05,-0.0554827
4.811e-05,-0.0553296
4.813e-05,-0.0550473
4.814e-05,-0.0550842
4.816e-05,-0.0550853
4.818e-05,-0.0552514
4.819e-05,-0.0550896
4.821e-05,-0.0549224
4.822e-05,-0.0547541
4.824e-05,-0.0547921
4.826e-05,-0.0548616
4.827e-05,-0.0547877
4.829e-05,-0.0547095
4.830e-05,-0.0544761
4.832e-05,-0.0544109
4.834e-05,-0.0544902
4.835e-05,-0.0545705
4.837e-05,-0.0545466
4.838e-05,-0.0542849
4.840e-05,-0.0541546
4.842e-05,-0.0541698
4.843e-05,-0.0542274
4.845e-05,-0.0542024
4.846e-05,-0.0540656
4.848e-05,-0.053856
4.850e-05,-0.0538842
4.851e-05,-0.0538907
4.853e-05,-0.0538636
4.854e-05,-0.0537745
4.856e-05,-0.0538408
4.858e-05,-0.0535812
4.859e-05,-0.0536779
4.861e-05,-0.0535508
4.862e-05,-0.0535584
4.864e-05,-0.0534792
4.866e-05,-0.0534031
4.867e-05,-0.0533782
4.869e-05,-0.0532652
4.870e-05,-0.0532631
4.872e-05,-0.0532381
4.874e-05,-0.0530676
4.875e-05,-0.0531132
4.877e-05,-0.0529373
4.878e-05,-0.0530003
4.880e-05,-0.0529481
4.882e-05,-0.0529004
4.883e-05,-0.0527472
4.885e-05,-0.0527201
4.886e-05,-0.0526528
4.888e-05,-0.0526462
4.890e-05,-0.0526625
4.891e-05,-0.0525072
4.893e-05,-0.0523487
4.894e-05,-0.0524258
4.896e-05,-0.0523302
4.898e-05,-0.0523465
4.899e-05,-0.0522825
4.901e-05,-0.0522108
4.902e-05,-0.0520935
4.904e-05,-0.052075
4.906e-05,-0.052037
4.907e-05,-0.052037
4.909e-05,-0.0520197
4.910e-05,-0.051796
4.912e-05,-0.0518372
4.914e-05,-0.0516885
4.915e-05,-0.0517026
4.917e-05,-0.0516863
4.918e-05,-0.0515603
4.920e-05,-0.0515082
4.922e-05,-0.0514441
4.923e-05,-0.0515028
4.925e-05,-0.0513887
4.926e-05,-0.0513985
4.928e-05,-0.051316
4.930e-05,-0.05119
4.931e-05,-0.051165
4.933e-05,-0.0510434
4.934e-05,-0.0510923
4.936e-05,-0.0510304
4.938e-05,-0.0509424
4.939e-05,-0.0508979
4.941e-05,-0.050962
4.942e-05,-0.0508957
4.944e-05,-0.0508034
4.946e-05,-0.0506926
4.947e-05,-0.0506829
4.949e-05,-0.0505395
4.950e-05,-0.0506622
4.952e-05,-0.0505851
4.954e-05,-0.0505938
4.955e-05,-0.0504168
4.957e-05,-0.0504005
4.958e-05,-0.0503365
4.960e-05,-0.0503766
4.962e-05,-0.0502572
4.963e-05,-0.0501519
4.965e-05,-0.0501584
4.966e-05,-0.0501084
4.968e-05,-0.05009
4.970e-05,-0.050154
4.971e-05,-0.0499151
4.973e-05,-0.0500378
4.974e-05,-0.0497609
4.976e-05,-0.0498641
4.978e-05,-0.0498
4.979e-05,-0.0497729
4.981e-05,-0.0497446
4.982e-05,-0.0496273
4.984e-05,-0.0496013
4.986e-05,-0.0496002
4.987e-05,-0.04961
4.989e-05,-0.0495198
4.990e-05,-0.0493613
4.992e-05,-0.0493808
4.994e-05,-0.0493374
4.995e-05,-0.0493363
4.997e-05,-0.0493526
4.998e-05,-0.0491691
5.000e-05,-0.0491886
5.002e-05,-0.0490648
5.003e-05,-0.0491897
5.005e-05,-0.0490822
5.006e-05,-0.0490572
5.008e-05,-0.0489237
5.010e-05,-0.0489866
5.011e-05,-0.0487608
5.013e-05,-0.0489323
5.014e-05,-0.0487575
5.016e-05,-0.0488172
5.018e-05,-0.0486087
5.019e-05,-0.0487499
5.021e-05,-0.0485729
5.022e-05,-0.0486185
5.024e-05,-0.0486533
5.026e-05,-0.0485924
5.027e-05,-0.0485001
5.029e-05,-0.0485447
5.030e-05,-0.0483372
5.032e-05,-0.0484697
5.034e-05,-0.0483481
5.035e-05,-0.0484285
5.037e-05,-0.0482276
5.038e-05,-0.0482667
5.040e-05,-0.0481787
5.042e-05,-0.0482254
5.043e-05,-0.0481624
5.045e-05,-0.0483394
5.046e-05,-0.0481744
5.048e-05,-0.0480777
5.050e-05,-0.0480288
5.051e-05,-0.0480918
5.053e-05,-0.0481125
5.054e-05,-0.0480864
5.056e-05,-0.0480017
5.058e-05,-0.0480267
5.059e-05,-0.048132
5.061e-05,-0.048005
5.062e-05,-0.0480147
5.064e-05,-0.0479083
5.066e-05,-0.0478507
5.067e-05,-0.0478507
5.069e-05,-0.0479333
5.070e-05,-0.0479126
5.072e-05,-0.047905
5.074e-05,-0.0477356
5.075e-05,-0.0478062
5.077e-05,-0.0477867
5.078e-05,-0.0479246
5.080e-05,-0.0478355
5.082e-05,-0.0476965
5.083e-05,-0.0476205
5.085e-05,-0.047766
5.086e-05,-0.0477356
5.088e-05,-0.0478106
5.090e-05,-0.0476585
5.091e-05,-0.0476629
5.093e-05,-0.0476162
5.094e-05,-0.0476781
5.096e-05,-0.0476433
5.098e-05,-0.0476792
5.099e-05,-0.0476032
5.101e-05,-0.0476499
5.102e-05,-0.0475337
5.104e-05,-0.0475684
5.106e-05,-0.0476042
5.107e-05,-0.0475597
5.109e-05,-0.0475662
5.110e-05,-0.0475836
5.112e-05,-0.0474924
5.114e-05,-0.0475717
5.115e-05,-0.0475358
5.117e-05,-0.047538
5.118e-05,-0.0475174
5.120e-05,-0.0474348
5.122e-05,-0.0475206
5.123e-05,-0.0474566
5.125e-05,-0.0474229
5.126e-05,-0.0473621
5.128e-05,-0.0474033
5.130e-05,-0.0475261
5.131e-05,-0.0473827
5.133e-05,-0.047348
5.134e-05,-0.0473621
5.136e-05,-0.0473414
5.138e-05,-0.0474261
5.139e-05,-0.0473425
5.141e-05,-0.0473795
5.142e-05,-0.0474674
5.144e-05,-0.0472915
5.146e-05,-0.0473425
5.147e-05,-0.0471948
5.149e-05,-0.0472709
5.150e-05,-0.0473045
5.152e-05,-0.0472839
5.154e-05,-0.0473273
5.155e-05,-0.0472318
5.157e-05,-0.0473024
5.158e-05,-0.0472578
5.160e-05,-0.0472166
5.162e-05,-0.0473566
5.163e-05,-0.0471503
5.165e-05,-0.0471981
5.166e-05,-0.0471449
5.168e-05,-0.0471927
5.170e-05,-0.0472546
5.171e-05,-0.0470819
5.173e-05,-0.0471134
5.174e-05,-0.0470656
5.176e-05,-0.0471123
5.178e-05,-0.0471101
5.179e-05,-0.0471319
5.181e-05,-0.0471188
5.182e-05,-0.0470211
5.184e-05,-0.0469885
5.186e-05,-0.0470015
5.187e-05,-0.0469907
5.189e-05,-0.0469559
5.190e-05,-0.0469842
5.192e-05,-0.0469255
5.194e-05,-0.0468419
5.195e-05,-0.0469179
5.197e-05,-0.0468115
5.198e-05,-0.0469494
5.200e-05,-0.046856
5.202e-05,-0.0468636
5.203e-05,-0.0469158
5.205e-05,-0.046906
5.206e-05,-0.0467713
5.208e-05,-0.0465987
5.210e-05,-0.0467018
5.211e-05,-0.0468745
5.213e-05,-0.0467637
5.214e-05,-0.0467474
5.216e-05,-0.0465465
5.218e-05,-0.0466063
5.219e-05,-0.0466019
5.221e-05,-0.0467485
5.222e-05,-0.046717
5.224e-05,-0.0467453
5.226e-05,-0.0465444
5.227e-05,-0.0465672
5.229e-05,-0.0464857
5.230e-05,-0.0466182
5.232e-05,-0.0465053
5.234e-05,-0.0466008
5.235e-05,-0.0464825
5.237e-05,-0.0464369
5.238e-05,-0.0464955
5.240e-05,-0.0465596
5.242e-05,-0.0465194
5.243e-05,-0.0464553
5.245e-05,-0.046363
5.246e-05,-0.0465313
5.248e-05,-0.046401
5.250e-05,-0.0464021
5.251e-05,-0.0463489
5.253e-05,-0.0463033
5.254e-05,-0.0464684
5.256e-05,-0.0464249
5.258e-05,-0.046477
5.259e-05,-0.0463391
5.261e-05,-0.0462262
5.262e-05,-0.0462468
5.264e-05,-0.046224
5.266e-05,-0.0463793
5.267e-05,-0.0463989
5.269e-05,-0.0462848
5.270e-05,-0.0463608
5.272e-05,-0.0462229
5.274e-05,-0.0462783
5.275e-05,-0.0462218
5.277e-05,-0.0462533
5.278e-05,-0.0462436
5.280e-05,-0.0462783
5.282e-05,-0.0462229
5.283e-05,-0.0462642
5.285e-05,-0.0461904
5.286e-05,-0.0461838
5.288e-05,-0.0460818
5.290e-05,-0.0462305
5.291e-05,-0.046148
5.293e-05,-0.0462468
5.294e-05,-0.0461534
5.296e-05,-0.0460915
5.298e-05,-0.0461773
5.299e-05,-0.0459851
5.301e-05,-0.0460655
5.302e-05,-0.0461252
5.304e-05,-0.0462153
5.306e-05,-0.0462664
5.307e-05,-0.0459558
5.309e-05,-0.0460611
5.310e-05,-0.0460481
5.312e-05,-0.0462577
5.314e-05,-0.0461643
5.315e-05,-0.0460579
5.317e-05,-0.0460318
5.318e-05,-0.0460394
5.320e-05,-0.0461393
5.322e-05,-0.046123
5.323e-05,-0.0461762
5.325e-05,-0.0460503
5.326e-05,-0.0459047
5.328e-05,-0.0459134
5.330e-05,-0.045996
5.331e-05,-0.046173
5.333e-05,-0.0460253
5.334e-05,-0.0459026
5.336e-05,-0.0459004
5.338e-05,-0.0460155
5.339e-05,-0.0460861
5.341e-05,-0.0460785
5.342e-05,-0.0459341
5.344e-05,-0.0459471
5.346e-05,-0.0460155
5.347e-05,-0.0460068
5.349e-05,-0.0459916
5.350e-05,-0.0459829
5.352e-05,-0.0459493
5.354e-05,-0.0458494
5.355e-05,-0.0459471
5.357e-05,-0.0459786
5.358e-05,-0.0460481
5.360e-05,-0.0459026
5.362e-05,-0.0459145
5.363e-05,-0.0459167
5.365e-05,-0.0459732
5.366e-05,-0.045895
5.368e-05,-0.0459547
5.370e-05,-0.0459482
5.371e-05,-0.0458613
5.373e-05,-0.0460188
5.374e-05,-0.0460361
5.376e-05,-0.0459406
5.378e-05,-0.0458548
5.379e-05,-0.0458971
5.381e-05,-0.0458852
5.382e-05,-0.0459786
5.384e-05,-0.046009
5.386e-05,-0.0458993
5.387e-05,-0.0459645
5.389e-05,-0.045958
5.390e-05,-0.0458809
5.392e-05,-0.0458667
5.394e-05,-0.0458266
5.395e-05,-0.0459514
5.397e-05,-0.0458971
5.398e-05,-0.0459384
5.400e-05,-0.0458982
5.402e-05,-0.0458472
5.403e-05,-0.0458765
5.405e-05,-0.045819
5.406e-05,-0.0458917
5.408e-05,-0.0459091
5.410e-05,-0.0459091
5.411e-05,-0.045959
5.413e-05,-0.0458472
5.414e-05,-0.0458765
5.416e-05,-0.0459525
5.418e-05,-0.04592
5.419e-05,-0.0458809
5.421e-05,-0.0458287
5.422e-05,-0.0458515
5.424e-05,-0.0458059
5.426e-05,-0.0459341
5.427e-05,-0.0458591
5.429e-05,-0.0458646
5.430e-05,-0.0459645
5.432e-05,-0.0459829
5.434e-05,-0.0459276
5.435e-05,-0.0459069
5.437e-05,-0.0458874
5.438e-05,-0.0458733
5.440e-05,-0.046009
5.442e-05,-0.0460014
5.443e-05,-0.0460275
5.445e-05,-0.0458537
5.446e-05,-0.0459124
5.448e-05,-0.0459536
5.450e-05,-0.0460372
5.451e-05,-0.0460676
5.453e-05,-0.0459536
5.454e-05,-0.0459004
5.456e-05,-0.0458961
5.458e-05,-0.0459797
5.459e-05,-0.0459178
5.461e-05,-0.0459156
5.462e-05,-0.0459753
5.464e-05,-0.0460285
5.466e-05,-0.0460296
5.467e-05,-0.0460698
5.469e-05,-0.0459829
5.470e-05,-0.0460025
5.472e-05,-0.0460079
5.474e-05,-0.0461545
5.475e-05,-0.0460372
5.477e-05,-0.0460752
5.478e-05,-0.0459666
5.480e-05,-0.0461209
5.482e-05,-0.0459547
5.483e-05,-0.046022
5.485e-05,-0.0460264
5.486e-05,-0.0460904
5.488e-05,-0.0460785
5.490e-05,-0.0460188
5.491e-05,-0.0461426
5.493e-05,-0.0461046
5.494e-05,-0.0460361
5.496e-05,-0.0460872
5.498e-05,-0.0460785
5.499e-05,-0.0460296
5.501e-05,-0.0460405
5.502e-05,-0.0460785
5.504e-05,-0.0461708
5.506e-05,-0.0461219
5.507e-05,-0.0460014
5.509e-05,-0.0460123
5.510e-05,-0.0460188
5.512e-05,-0.0461523
5.514e-05,-0.046123
5.515e-05,-0.0460818
5.517e-05,-0.0461686
5.518e-05,-0.0459319
5.520e-05,-0.0461599
5.522e-05,-0.0461252
5.523e-05,-0.0461393
5.525e-05,-0.0460904
5.526e-05,-0.0460742
5.528e-05,-0.0460763
5.530e-05,-0.0460763
5.531e-05,-0.0461784
5.533e-05,-0.0461534
5.534e-05,-0.0460872
5.536e-05,-0.0461806
5.538e-05,-0.0461002
5.539e-05,-0.0461447
5.541e-05,-0.0460839
5.542e-05,-0.0462208
5.544e-05,-0.0461567
5.546e-05,-0.0461469
5.547e-05,-0.0461143
5.549e-05,-0.0461697
5.550e-05,-0.0461187
5.552e-05,-0.0461361
5.554e-05,-0.0461741
5.555e-05,-0.0461741
5.557e-05,-0.045946
5.558e-05,-0.0461132
5.560e-05,-0.0460514
5.562e-05,-0.0462088
5.563e-05,-0.046173
5.565e-05,-0.0461708
5.566e-05,-0.0460318
5.568e-05,-0.0460937
5.570e-05,-0.0461404
5.571e-05,-0.0462034
5.573e-05,-0.0461067
5.574e-05,-0.0460557
5.576e-05,-0.0460199
5.578e-05,-0.0461122
5.579e-05,-0.0462522
5.581e-05,-0.0461306
5.582e-05,-0.0461806
5.584e-05,-0.0459384
5.586e-05,-0.046161
5.587e-05,-0.0461523
5.589e-05,-0.0461447
5.590e-05,-0.046072
5.592e-05,-0.0460666
5.594e-05,-0.0460861
5.595e-05,-0.0461686
5.597e-05,-0.0461013
5.598e-05,-0.0461024
5.600e-05,-0.0460264
5.602e-05,-0.046072
5.603e-05,-0.0460427
5.605e-05,-0.0460698
5.606e-05,-0.0460057
5.608e-05,-0.045996
5.610e-05,-0.0460644
5.611e-05,-0.0460904
5.613e-05,-0.0460144
5.614e-05,-0.0460188
5.616e-05,-0.0460025
5.618e-05,-0.046098
5.619e-05,-0.0460807
5.621e-05,-0.0461111
5.622e-05,-0.0460253
5.624e-05,-0.0459286
5.626e-05,-0.0461132
5.627e-05,-0.0460133
5.629e-05,-0.046047
5.630e-05,-0.0460546
5.632e-05,-0.0460481
5.634e-05,-0.0460622
5.635e-05,-0.045984
5.637e-05,-0.0459124
5.638e-05,-0.0459677
5.640e-05,-0.0460644
5.642e-05,-0.0461491
5.643e-05,-0.0461339
5.645e-05,-0.0460427
5.646e-05,-0.0459189
5.648e-05,-0.0460144
5.650e-05,-0.0459352
5.651e-05,-0.0460144
5.653e-05,-0.0460839
5.654e-05,-0.0461328
5.656e-05,-0.0460014
5.658e-05,-0.0459438
5.659e-05,-0.0460307
5.661e-05,-0.0459721
5.662e-05,-0.046059
5.664e-05,-0.0458841
5.666e-05,-0.0459504
5.667e-05,-0.0460459
5.669e-05,-0.04611
5.670e-05,-0.0458895
5.672e-05,-0.0458874
5.674e-05,-0.0459232
5.675e-05,-0.0460285
5.677e-05,-0.0461263
5.678e-05,-0.045996
5.680e-05,-0.0459634
5.682e-05,-0.0459102
5.683e-05,-0.0458635
5.685e-05,-0.0460459
5.686e-05,-0.0459623
5.688e-05,-0.0460329
5.690e-05,-0.0458537
5.691e-05,-0.0459482
5.693e-05,-0.0459319
5.694e-05,-0.0459634
5.696e-05,-0.0460351
5.698e-05,-0.0459265
5.699e-05,-0.0458961
5.701e-05,-0.045958
5.702e-05,-0.0459808
5.704e-05,-0.0459091
5.706e-05,-0.0459026
5.707e-05,-0.045946
5.709e-05,-0.0459949
5.710e-05,-0.0459297
5.712e-05,-0.0458657
5.714e-05,-0.045883
5.715e-05,-0.0458754
5.717e-05,-0.0460101
5.718e-05,-0.0459623
5.720e-05,-0.0459384
5.722e-05,-0.0459232
5.723e-05,-0.0458798
5.725e-05,-0.0459319
5.726e-05,-0.0458168
5.728e-05,-0.0459297
5.730e-05,-0.0459243
5.731e-05,-0.04587
5.733e-05,-0.0458733
5.734e-05,-0.0458537
5.736e-05,-0.04582
5.738e-05,-0.0459167
5.739e-05,-0.0459286
5.741e-05,-0.0458352
5.742e-05,-0.0458667
5.744e-05,-0.0457538
5.746e-05,-0.0458667
5.747e-05,-0.0459047
5.749e-05,-0.0458765
5.750e-05,-0.0459634
5.752e-05,-0.0457896
5.754e-05,-0.0459677
5.755e-05,-0.0457603
5.757e-05,-0.0459417
5.758e-05,-0.0458635
5.760e-05,-0.045895
5.762e-05,-0.0458993
5.763e-05,-0.045908
5.765e-05,-0.0458841
5.766e-05,-0.0458646
5.768e-05,-0.0458016
5.770e-05,-0.0459156
5.771e-05,-0.0459113
5.773e-05,-0.0459319
5.774e-05,-0.0458657
5.776e-05,-0.0459384
5.778e-05,-0.045883
5.779e-05,-0.0458646
5.781e-05,-0.0458885
5.782e-05,-0.0459775
5.784e-05,-0.0458733
5.786e-05,-0.0459449
5.787e-05,-0.0459666
5.789e-05,-0.0459145
5.790e-05,-0.046047
5.792e-05,-0.0458559
5.794e-05,-0.0458852
5.795e-05,-0.0459721
5.797e-05,-0.0459862
5.798e-05,-0.0460448
5.800e-05,-0.0460514
5.802e-05,-0.0460318
5.803e-05,-0.0459634
5.805e-05,-0.0459384
5.806e-05,-0.0459873
5.808e-05,-0.0459949
5.810e-05,-0.0460937
5.811e-05,-0.0460709
5.813e-05,-0.0460894
5.814e-05,-0.0461143
5.816e-05,-0.0460904
5.818e-05,-0.0460633
5.819e-05,-0.0460535
5.821e-05,-0.0461263
5.822e-05,-0.0461219
5.824e-05,-0.046059
5.826e-05,-0.0461361
5.827e-05,-0.0460676
5.829e-05,-0.0460709
5.830e-05,-0.0460372
5.832e-05,-0.0461502
5.834e-05,-0.0461589
5.835e-05,-0.0461469
5.837e-05,-0.0460112
5.838e-05,-0.0461534
5.840e-05,-0.0461458
5.842e-05,-0.046123
5.843e-05,-0.0460763
5.845e-05,-0.0461817
5.846e-05,-0.0461317
5.848e-05,-0.0462392
5.850e-05,-0.0460275
5.851e-05,-0.0461046
5.853e-05,-0.046123
5.854e-05,-0.0460492
5.856e-05,-0.0462077
5.858e-05,-0.0460644
5.859e-05,-0.0461513
5.861e-05,-0.0461437
5.862e-05,-0.0462142
5.864e-05,-0.046224
5.866e-05,-0.0461437
5.867e-05,-0.0461154
5.869e-05,-0.0461143
5.870e-05,-0.0460807
5.872e-05,-0.0462251
5.874e-05,-0.0460351
5.875e-05,-0.0461426
5.877e-05,-0.046097
5.878e-05,-0.0461339
5.880e-05,-0.0460742
5.882e-05,-0.0460959
5.883e-05,-0.0461285
5.885e-05,-0.046097
5.886e-05,-0.0460622
5.888e-05,-0.0460807
5.890e-05,-0.0461252
5.891e-05,-0.0461447
5.893e-05,-0.0460742
5.894e-05,-0.0461404
5.896e-05,-0.0461795
5.898e-05,-0.0461241
5.899e-05,-0.0460796
5.901e-05,-0.0460818
5.902e-05,-0.0461078
5.904e-05,-0.0461817
5.906e-05,-0.0461165
5.907e-05,-0.0461013
5.909e-05,-0.0460481
5.910e-05,-0.0461534
5.912e-05,-0.0462088
5.914e-05,-0.046199
5.915e-05,-0.0461654
5.917e-05,-0.0460514
5.918e-05,-0.0460818
5.920e-05,-0.0460253
5.922e-05,-0.046274
5.923e-05,-0.0461556
5.925e-05,-0.0462848
5.926e-05,-0.0460687
5.928e-05,-0.0460546
5.930e-05,-0.0461317
5.931e-05,-0.0462197
5.933e-05,-0.0462718
5.934e-05,-0.0461143
5.936e-05,-0.046085
5.938e-05,-0.0461154
5.939e-05,-0.0461371
5.941e-05,-0.0462968
5.942e-05,-0.0461784
5.944e-05,-0.0461599
5.946e-05,-0.0460709
5.947e-05,-0.0462675
5.949e-05,-0.0461893
5.950e-05,-0.0462718
5.952e-05,-0.046262
5.954e-05,-0.046224
5.955e-05,-0.0461589
5.957e-05,-0.046173
5.958e-05,-0.0462218
5.960e-05,-0.0461317
5.962e-05,-0.0462132
5.963e-05,-0.0462273
5.965e-05,-0.0462816
5.966e-05,-0.04611
5.968e-05,-0.0460763
5.970e-05,-0.0462392
5.971e-05,-0.0461665
5.973e-05,-0.0461795
5.974e-05,-0.0462577
5.976e-05,-0.0461838
5.978e-05,-0.0462783
5.979e-05,-0.0462045
5.981e-05,-0.0462164
5.982e-05,-0.0460264
5.984e-05,-0.0461817
5.986e-05,-0.0462316
5.987e-05,-0.0462729
5.989e-05,-0.0461339
5.990e-05,-0.0462186
5.992e-05,-0.046072
5.994e-05,-0.046173
5.995e-05,-0.046198
5.997e-05,-0.0461285
5.998e-05,-0.0461697
6.000e-05,-0.0461165
6.002e-05,-0.0462164
6.003e-05,-0.0460926
6.005e-05,-0.0461132
6.006e-05,-0.0460818
6.008e-05,-0.0460199
6.010e-05,-0.0460546
6.011e-05,-0.0460351
6.013e-05,-0.0460807
6.014e-05,-0.0460492
6.016e-05,-0.0460818
6.018e-05,-0.0459384
6.019e-05,-0.0460568
6.021e-05,-0.046097
6.022e-05,-0.0459721
6.024e-05,-0.0460166
6.026e-05,-0.0457614
6.027e-05,-0.045921
6.029e-05,-0.0458776
6.030e-05,-0.046009
6.032e-05,-0.0459851
6.034e-05,-0.0458874
6.035e-05,-0.0458961
6.037e-05,-0.045782
6.038e-05,-0.045883
6.040e-05,-0.0459189
6.042e-05,-0.045807
6.043e-05,-0.0459558
6.045e-05,-0.0456854
6.046e-05,-0.0458439
6.048e-05,-0.0456962
6.050e-05,-0.0457766
6.051e-05,-0.0458168
6.053e-05,-0.0457288
6.054e-05,-0.0457462
6.056e-05,-0.0457972
6.058e-05,-0.0456561
6.059e-05,-0.0457408
6.061e-05,-0.0457028
6.062e-05,-0.0457636
6.064e-05,-0.0457712
6.066e-05,-0.0456593
6.067e-05,-0.0457234
6.069e-05,-0.045718
6.070e-05,-0.0457592
6.072e-05,-0.0458222
6.074e-05,-0.0456137
6.075e-05,-0.045592
6.077e-05,-0.0456539
6.078e-05,-0.0457429
6.080e-05,-0.0458559
6.082e-05,-0.0456778
6.083e-05,-0.045643
6.085e-05,-0.0456713
6.086e-05,-0.0457549
6.088e-05,-0.0458646
6.090e-05,-0.0458168
6.091e-05,-0.0456713
6.093e-05,-0.0457592
6.094e-05,-0.0456984
6.096e-05,-0.0459047
6.098e-05,-0.0458733
6.099e-05,-0.0459395
6.101e-05,-0.0457657
6.102e-05,-0.0457744
6.104e-05,-0.0458591
6.106e-05,-0.0459362
6.107e-05,-0.0458971
6.109e-05,-0.0459504
6.110e-05,-0.0458613
6.112e-05,-0.0459666
6.114e-05,-0.0459471
6.115e-05,-0.0460285
6.117e-05,-0.045883
6.118e-05,-0.0459091
6.120e-05,-0.0459482
6.122e-05,-0.0461089
6.123e-05,-0.0460557
6.125e-05,-0.0460188
6.126e-05,-0.0459688
6.128e-05,-0.0459895
6.130e-05,-0.0460372
6.131e-05,-0.0461143
6.133e-05,-0.046085
6.134e-05,-0.0460774
6.136e-05,-0.0458841
6.138e-05,-0.0461154
6.139e-05,-0.0460839
6.141e-05,-0.0461882
6.142e-05,-0.0462012
6.144e-05,-0.0460687
6.146e-05,-0.0461078
6.147e-05,-0.0460047
6.149e-05,-0.0462229
6.150e-05,-0.0461382
6.152e-05,-0.0461317
6.154e-05,-0.0462327
6.155e-05,-0.0462631
6.157e-05,-0.0461958
6.158e-05,-0.0461751
6.160e-05,-0.0461317
6.162e-05,-0.0462218
6.163e-05,-0.0461274
6.165e-05,-0.0462251
6.166e-05,-0.046211
