Model,TBS1102C
Firmware Version,v2015-08-04-prequal4ch70_v1.3

Point Format,Y
Horizontal Units,S
Horizontal Scale,2e-06
Sample Interval,1.6e-08
Filter Frequency,2e+08
Record Length,2000
Gating,0.0% to 100.0%
Probe Attenuation,1
Vertical Units,V
Vertical Offset,0
Vertical Scale,0.00985
Label,
TIME,CH1
2.581e-05,-0.0802883
2.582e-05,-0.080376
2.584e-05,-0.0803668
2.586e-05,-0.0802713
2.587e-05,-0.0803237
2.589e-05,-0.0802806
2.590e-05,-0.0803991
2.592e-05,-0.0803698
2.594e-05,-0.080396
2.595e-05,-0.0803545
2.597e-05,-0.0803637
2.598e-05,-0.0804222
2.600e-05,-0.0803975
2.602e-05,-0.0804191
2.603e-05,-0.0804914
2.605e-05,-0.0803375
2.606e-05,-0.0804006
2.608e-05,-0.0803837
2.610e-05,-0.0805391
2.611e-05,-0.0804822
2.613e-05,-0.0805161
2.614e-05,-0.0803929
2.616e-05,-0.0803868
2.618e-05,-0.0804776
2.619e-05,-0.0804991
2.621e-05,-0.0804991
2.622e-05,-0.0804791
2.624e-05,-0.0803914
2.626e-05,-0.0805438
2.627e-05,-0.0805253
2.629e-05,-0.0805376
2.630e-05,-0.0805007
2.632e-05,-0.0805314
2.634e-05,-0.0804868
2.635e-05,-0.0805268
2.637e-05,-0.080473
2.638e-05,-0.0805622
2.640e-05,-0.0805084
2.642e-05,-0.0805284
2.643e-05,-0.080436
2.645e-05,-0.0805484
2.646e-05,-0.0805407
2.648e-05,-0.0805207
2.650e-05,-0.0804745
2.651e-05,-0.0804268
2.653e-05,-0.0805007
2.654e-05,-0.0805191
2.656e-05,-0.0805545
2.658e-05,-0.0805314
2.659e-05,-0.080476
2.661e-05,-0.0803714
2.662e-05,-0.0805438
2.664e-05,-0.0805114
2.666e-05,-0.080496
2.667e-05,-0.0803852
2.669e-05,-0.0804206
2.670e-05,-0.0804376
2.672e-05,-0.0805792
2.674e-05,-0.0804314
2.675e-05,-0.0804391
2.677e-05,-0.0804345
2.678e-05,-0.080436
2.680e-05,-0.0803591
2.682e-05,-0.0804437
2.683e-05,-0.0804391
2.685e-05,-0.0805207
2.686e-05,-0.0803344
2.688e-05,-0.0804145
2.690e-05,-0.0803314
2.691e-05,-0.0803822
2.693e-05,-0.080416
2.694e-05,-0.0804606
2.696e-05,-0.0803668
2.698e-05,-0.0803529
2.699e-05,-0.0803498
2.701e-05,-0.0804791
2.702e-05,-0.0803391
2.704e-05,-0.0804006
2.706e-05,-0.0803652
2.707e-05,-0.0804222
2.709e-05,-0.0803975
2.710e-05,-0.0804268
2.712e-05,-0.0803329
2.714e-05,-0.0803314
2.715e-05,-0.0803344
2.717e-05,-0.0804391
2.718e-05,-0.0803991
2.720e-05,-0.0804637
2.722e-05,-0.0803298
2.723e-05,-0.0804006
2.725e-05,-0.0803191
2.726e-05,-0.0804329
2.728e-05,-0.0803806
2.730e-05,-0.0803883
2.731e-05,-0.0804591
2.733e-05,-0.0803945
2.734e-05,-0.0804745
2.736e-05,-0.0802944
2.738e-05,-0.0802498
2.739e-05,-0.0804022
2.741e-05,-0.0804176
2.742e-05,-0.080453
2.744e-05,-0.0804837
2.746e-05,-0.0803529
2.747e-05,-0.0804022
2.749e-05,-0.0803621
2.750e-05,-0.0804483
2.752e-05,-0.080356
2.754e-05,-0.0804022
2.755e-05,-0.0803437
2.757e-05,-0.0804114
2.758e-05,-0.0804068
2.760e-05,-0.0803914
2.762e-05,-0.080259
2.763e-05,-0.0804391
2.765e-05,-0.0803144
2.766e-05,-0.0804622
2.768e-05,-0.0802944
2.770e-05,-0.080356
2.771e-05,-0.0802575
2.773e-05,-0.0803852
2.774e-05,-0.0803252
2.776e-05,-0.0803329
2.778e-05,-0.0803314
2.779e-05,-0.0804299
2.781e-05,-0.0803822
2.782e-05,-0.080336
2.784e-05,-0.0803098
2.786e-05,-0.0804145
2.787e-05,-0.0803421
2.789e-05,-0.0804422
2.790e-05,-0.0803652
2.792e-05,-0.0803098
2.794e-05,-0.0803067
2.795e-05,-0.0803529
2.797e-05,-0.080376
2.798e-05,-0.0803421
2.800e-05,-0.0802713
2.802e-05,-0.0804037
2.803e-05,-0.0804129
2.805e-05,-0.0803191
2.806e-05,-0.0803714
2.808e-05,-0.0803775
2.810e-05,-0.0803098
2.811e-05,-0.0802837
2.813e-05,-0.0802144
2.814e-05,-0.0803483
2.816e-05,-0.080416
2.818e-05,-0.0804606
2.819e-05,-0.0803344
2.821e-05,-0.0803606
2.822e-05,-0.0803206
2.824e-05,-0.0804545
2.826e-05,-0.0803975
2.827e-05,-0.080199
2.829e-05,-0.0803344
2.830e-05,-0.0803083
2.832e-05,-0.080533
2.834e-05,-0.0804022
2.835e-05,-0.0803945
2.837e-05,-0.080256
2.838e-05,-0.0803545
2.840e-05,-0.0803806
2.842e-05,-0.0804376
2.843e-05,-0.0803899
2.845e-05,-0.0803822
2.846e-05,-0.0802867
2.848e-05,-0.0803852
2.850e-05,-0.0804268
2.851e-05,-0.0806022
2.853e-05,-0.0803975
2.854e-05,-0.0802929
2.856e-05,-0.0802713
2.858e-05,-0.0805468
2.859e-05,-0.080416
2.861e-05,-0.0805176
2.862e-05,-0.0803391
2.864e-05,-0.0804022
2.866e-05,-0.0803745
2.867e-05,-0.0804791
2.869e-05,-0.0804853
2.870e-05,-0.0804683
2.872e-05,-0.0804145
2.874e-05,-0.0803606
2.875e-05,-0.0804514
2.877e-05,-0.0805145
2.878e-05,-0.0803806
2.880e-05,-0.0804006
2.882e-05,-0.0804083
2.883e-05,-0.0805607
2.885e-05,-0.0804637
2.886e-05,-0.080299
2.888e-05,-0.0803729
2.890e-05,-0.0803652
2.891e-05,-0.0805268
2.893e-05,-0.0804622
2.894e-05,-0.080436
2.896e-05,-0.0804222
2.898e-05,-0.0803883
2.899e-05,-0.0805792
2.901e-05,-0.0804545
2.902e-05,-0.0804868
2.904e-05,-0.0803329
2.906e-05,-0.0803991
2.907e-05,-0.0804499
2.909e-05,-0.0805484
2.910e-05,-0.0804037
2.912e-05,-0.0804237
2.914e-05,-0.0803929
2.915e-05,-0.0804499
2.917e-05,-0.0804899
2.918e-05,-0.0804145
2.920e-05,-0.080476
2.922e-05,-0.0803421
2.923e-05,-0.0804345
2.925e-05,-0.0803283
2.926e-05,-0.080476
2.928e-05,-0.0803975
2.930e-05,-0.0804006
2.931e-05,-0.0803344
2.933e-05,-0.0803514
2.934e-05,-0.080416
2.936e-05,-0.0804453
2.938e-05,-0.0803129
2.939e-05,-0.0804406
2.941e-05,-0.0802683
2.942e-05,-0.0804391
2.944e-05,-0.0802544
2.946e-05,-0.0803683
2.947e-05,-0.0803529
2.949e-05,-0.0803899
2.950e-05,-0.0804514
2.952e-05,-0.080453
2.954e-05,-0.0804437
2.955e-05,-0.0803668
2.957e-05,-0.0802729
2.958e-05,-0.0804176
2.960e-05,-0.0804483
2.962e-05,-0.0804099
2.963e-05,-0.0803252
2.965e-05,-0.080376
2.966e-05,-0.0803391
2.968e-05,-0.0803052
2.970e-05,-0.0803775
2.971e-05,-0.0804468
2.973e-05,-0.0802929
2.974e-05,-0.0803945
2.976e-05,-0.0802529
2.978e-05,-0.0803591
2.979e-05,-0.080316
2.981e-05,-0.080456
2.982e-05,-0.0803329
2.984e-05,-0.0804176
2.986e-05,-0.080456
2.987e-05,-0.0803729
2.989e-05,-0.0802914
2.990e-05,-0.0802914
2.992e-05,-0.080396
2.994e-05,-0.0804268
2.995e-05,-0.0804068
2.997e-05,-0.0803391
2.998e-05,-0.0802775
3.000e-05,-0.080456
3.002e-05,-0.0805191
3.003e-05,-0.0803822
3.005e-05,-0.080256
3.006e-05,-0.0803021
3.008e-05,-0.0804868
3.010e-05,-0.080513
3.011e-05,-0.0804268
3.013e-05,-0.0802683
3.014e-05,-0.0803437
3.016e-05,-0.0803006
3.018e-05,-0.0804807
3.019e-05,-0.0804514
3.021e-05,-0.0804668
3.022e-05,-0.0804499
3.024e-05,-0.0804868
3.026e-05,-0.0803529
3.027e-05,-0.0803683
3.029e-05,-0.0804422
3.030e-05,-0.0805453
3.032e-05,-0.0804222
3.034e-05,-0.0804745
3.035e-05,-0.0803606
3.037e-05,-0.0805207
3.038e-05,-0.0804745
3.040e-05,-0.0804884
3.042e-05,-0.0804114
3.043e-05,-0.0804976
3.045e-05,-0.0803683
3.046e-05,-0.0804699
3.048e-05,-0.0803545
3.050e-05,-0.0804745
3.051e-05,-0.0804807
3.053e-05,-0.0806284
3.054e-05,-0.080513
3.056e-05,-0.0803391
3.058e-05,-0.0802806
3.059e-05,-0.0804468
3.061e-05,-0.080496
3.062e-05,-0.0805299
3.064e-05,-0.0804037
3.066e-05,-0.0804714
3.067e-05,-0.0804006
3.069e-05,-0.0804145
3.070e-05,-0.0805007
3.072e-05,-0.0804453
3.074e-05,-0.0803652
3.075e-05,-0.0804253
3.077e-05,-0.0804083
3.078e-05,-0.0804253
3.080e-05,-0.0803991
3.082e-05,-0.0804206
3.083e-05,-0.0804222
3.085e-05,-0.080336
3.086e-05,-0.0804683
3.088e-05,-0.0804683
3.090e-05,-0.0803529
3.091e-05,-0.0804668
3.093e-05,-0.0802867
3.094e-05,-0.0803837
3.096e-05,-0.0804591
3.098e-05,-0.0803668
3.099e-05,-0.0804683
3.101e-05,-0.080239
3.102e-05,-0.0804191
3.104e-05,-0.0803745
3.106e-05,-0.0804914
3.107e-05,-0.0803483
3.109e-05,-0.0802344
3.110e-05,-0.0803437
3.112e-05,-0.0803868
3.114e-05,-0.0805114
3.115e-05,-0.0803268
3.117e-05,-0.0802483
3.118e-05,-0.080376
3.120e-05,-0.0804376
3.122e-05,-0.0805684
3.123e-05,-0.0804853
3.125e-05,-0.0803406
3.126e-05,-0.0802113
3.128e-05,-0.0804145
3.130e-05,-0.0804653
3.131e-05,-0.0804884
3.133e-05,-0.0803067
3.134e-05,-0.080376
3.136e-05,-0.0802421
3.138e-05,-0.080396
3.139e-05,-0.0804022
3.141e-05,-0.0804437
3.142e-05,-0.0803575
3.144e-05,-0.0803329
3.146e-05,-0.0803729
3.147e-05,-0.0804299
3.149e-05,-0.0803591
3.150e-05,-0.0803883
3.152e-05,-0.0802837
3.154e-05,-0.0804237
3.155e-05,-0.0803683
3.157e-05,-0.080453
3.158e-05,-0.0803406
3.160e-05,-0.0803652
3.162e-05,-0.0803621
3.163e-05,-0.0803652
3.165e-05,-0.0803852
3.166e-05,-0.0802883
3.168e-05,-0.0804129
3.170e-05,-0.0804037
3.171e-05,-0.0803437
3.173e-05,-0.0802636
3.174e-05,-0.0802283
3.176e-05,-0.0802636
3.178e-05,-0.0802929
3.179e-05,-0.0804483
3.181e-05,-0.0802298
3.182e-05,-0.080219
3.184e-05,-0.0801929
3.186e-05,-0.0802529
3.187e-05,-0.0803067
3.189e-05,-0.0803067
3.190e-05,-0.0801944
3.192e-05,-0.0801036
3.194e-05,-0.0803268
3.195e-05,-0.0802713
3.197e-05,-0.0802606
3.198e-05,-0.0801929
3.200e-05,-0.0801682
3.202e-05,-0.0801559
3.203e-05,-0.0802621
3.205e-05,-0.0802313
3.206e-05,-0.0802052
3.208e-05,-0.0801852
3.210e-05,-0.0801359
3.211e-05,-0.0802144
3.213e-05,-0.0802283
3.214e-05,-0.0801636
3.216e-05,-0.0801575
3.218e-05,-0.0802021
3.219e-05,-0.080356
3.221e-05,-0.0802575
3.222e-05,-0.080256
3.224e-05,-0.0801744
3.226e-05,-0.0800836
3.227e-05,-0.0801159
3.229e-05,-0.0802636
3.230e-05,-0.0802837
3.232e-05,-0.0801913
3.234e-05,-0.0801313
3.235e-05,-0.0801698
3.237e-05,-0.0802944
3.238e-05,-0.0802575
3.240e-05,-0.0802621
3.242e-05,-0.0802436
3.243e-05,-0.0801882
3.245e-05,-0.0803483
3.246e-05,-0.0802513
3.248e-05,-0.0803668
3.250e-05,-0.0801913
3.251e-05,-0.0803452
3.253e-05,-0.0803191
3.254e-05,-0.080296
3.256e-05,-0.0802898
3.258e-05,-0.0801867
3.259e-05,-0.0804314
3.261e-05,-0.0803745
3.262e-05,-0.0803621
3.264e-05,-0.0803791
3.266e-05,-0.0803006
3.267e-05,-0.0803683
3.269e-05,-0.0803344
3.270e-05,-0.0803945
3.272e-05,-0.0803283
3.274e-05,-0.0804914
3.275e-05,-0.0803791
3.277e-05,-0.0803652
3.278e-05,-0.0804083
3.280e-05,-0.0803498
3.282e-05,-0.080496
3.283e-05,-0.0804545
3.285e-05,-0.080416
3.286e-05,-0.0803714
3.288e-05,-0.0802436
3.290e-05,-0.0802852
3.291e-05,-0.080416
3.293e-05,-0.0805099
3.294e-05,-0.0804945
3.296e-05,-0.0803837
3.298e-05,-0.0802914
3.299e-05,-0.0804222
3.301e-05,-0.0804884
3.302e-05,-0.0804468
3.304e-05,-0.0805145
3.306e-05,-0.0803668
3.307e-05,-0.0803975
3.309e-05,-0.0802929
3.310e-05,-0.0804145
3.312e-05,-0.0804822
3.314e-05,-0.0804899
3.315e-05,-0.0803929
3.317e-05,-0.0804406
3.318e-05,-0.0804083
3.320e-05,-0.0803975
3.322e-05,-0.0804422
3.323e-05,-0.0803144
3.325e-05,-0.0804945
3.326e-05,-0.0804299
3.328e-05,-0.0804191
3.330e-05,-0.080436
3.331e-05,-0.0804099
3.333e-05,-0.0806376
3.334e-05,-0.0804853
3.336e-05,-0.0805807
3.338e-05,-0.0803637
3.339e-05,-0.0805745
3.341e-05,-0.0805284
3.342e-05,-0.0804837
3.344e-05,-0.0804714
3.346e-05,-0.0803975
3.347e-05,-0.0804884
3.349e-05,-0.0806592
3.350e-05,-0.0806269
3.352e-05,-0.0806176
3.354e-05,-0.0805145
3.355e-05,-0.0806007
3.357e-05,-0.0806253
3.358e-05,-0.0807084
3.360e-05,-0.0805822
3.362e-05,-0.0807331
3.363e-05,-0.0805653
3.365e-05,-0.0807269
3.366e-05,-0.080613
3.368e-05,-0.0807469
3.370e-05,-0.0806069
3.371e-05,-0.0806361
3.373e-05,-0.0807284
3.374e-05,-0.0806269
3.376e-05,-0.0807254
3.378e-05,-0.0807854
3.379e-05,-0.0807269
3.381e-05,-0.0807762
3.382e-05,-0.0807623
3.384e-05,-0.0808393
3.386e-05,-0.0807361
3.387e-05,-0.0806946
3.389e-05,-0.0807746
3.390e-05,-0.0806638
3.392e-05,-0.0808685
3.394e-05,-0.0807654
3.395e-05,-0.0807531
3.397e-05,-0.0808285
3.398e-05,-0.0808408
3.400e-05,-0.08083
3.402e-05,-0.080867
3.403e-05,-0.0807715
3.405e-05,-0.0808639
3.406e-05,-0.0808039
3.408e-05,-0.0809701
3.410e-05,-0.0808316
3.411e-05,-0.0807762
3.413e-05,-0.0807315
3.414e-05,-0.0808008
3.416e-05,-0.0809316
3.418e-05,-0.0809208
3.419e-05,-0.0808885
3.421e-05,-0.0808346
3.422e-05,-0.0807423
3.424e-05,-0.0807946
3.426e-05,-0.08089
3.427e-05,-0.0810224
3.429e-05,-0.08079
3.430e-05,-0.0809116
3.432e-05,-0.0807131
3.434e-05,-0.0808393
3.435e-05,-0.0809485
3.437e-05,-0.0809932
3.438e-05,-0.080867
3.440e-05,-0.0808685
3.442e-05,-0.0808254
3.443e-05,-0.0808824
3.445e-05,-0.0809778
3.446e-05,-0.080987
3.448e-05,-0.08085
3.450e-05,-0.0809008
3.451e-05,-0.0808577
3.453e-05,-0.0809347
3.454e-05,-0.0809424
3.456e-05,-0.0808885
3.458e-05,-0.0808623
3.459e-05,-0.0808854
3.461e-05,-0.0808531
3.462e-05,-0.0808593
3.464e-05,-0.081007
3.466e-05,-0.0809101
3.467e-05,-0.0809732
3.469e-05,-0.0808546
3.470e-05,-0.0809901
3.472e-05,-0.0809593
3.474e-05,-0.081027
3.475e-05,-0.0808623
3.477e-05,-0.0809839
3.478e-05,-0.0809347
3.480e-05,-0.0809608
3.482e-05,-0.0809901
3.483e-05,-0.0810501
3.485e-05,-0.0809393
3.486e-05,-0.0809778
3.488e-05,-0.0809239
3.490e-05,-0.0810624
3.491e-05,-0.0810132
3.493e-05,-0.0810516
3.494e-05,-0.0809008
3.496e-05,-0.0810901
3.498e-05,-0.0811009
3.499e-05,-0.0810963
3.501e-05,-0.0810239
3.502e-05,-0.0811378
3.504e-05,-0.0811024
3.506e-05,-0.0811917
3.507e-05,-0.0811409
3.509e-05,-0.0810994
3.510e-05,-0.0810624
3.512e-05,-0.0811717
3.514e-05,-0.0811594
3.515e-05,-0.0811455
3.517e-05,-0.080967
3.518e-05,-0.0811132
3.520e-05,-0.0811886
3.522e-05,-0.0814318
3.523e-05,-0.0812379
3.525e-05,-0.081124
3.526e-05,-0.081044
3.528e-05,-0.0811086
3.530e-05,-0.0812594
3.531e-05,-0.0811117
3.533e-05,-0.0811871
3.534e-05,-0.0810624
3.536e-05,-0.0812871
3.538e-05,-0.0812302
3.539e-05,-0.0812271
3.541e-05,-0.0811409
3.542e-05,-0.0811825
3.544e-05,-0.081204
3.546e-05,-0.081204
3.547e-05,-0.081204
3.549e-05,-0.0811917
3.550e-05,-0.0810686
3.552e-05,-0.0812163
3.554e-05,-0.0811178
3.555e-05,-0.0813702
3.557e-05,-0.0811855
3.558e-05,-0.0812748
3.560e-05,-0.0812086
3.562e-05,-0.0813502
3.563e-05,-0.0813025
3.565e-05,-0.0813271
3.566e-05,-0.0811871
3.568e-05,-0.0812025
3.570e-05,-0.0812179
3.571e-05,-0.0813041
3.573e-05,-0.0813795
3.574e-05,-0.0813425
3.576e-05,-0.0813041
3.578e-05,-0.0812625
3.579e-05,-0.0812702
3.581e-05,-0.0814195
3.582e-05,-0.0813887
3.584e-05,-0.081461
3.586e-05,-0.0813718
3.587e-05,-0.0813841
3.589e-05,-0.0813995
3.590e-05,-0.0813656
3.592e-05,-0.0815457
3.594e-05,-0.0813795
3.595e-05,-0.0815349
3.597e-05,-0.0814195
3.598e-05,-0.0815257
3.600e-05,-0.0814533
3.602e-05,-0.0815241
3.603e-05,-0.081578
3.605e-05,-0.0816488
3.606e-05,-0.0816596
3.608e-05,-0.0814657
3.610e-05,-0.0815072
3.611e-05,-0.0816134
3.613e-05,-0.0815257
3.614e-05,-0.0816919
3.616e-05,-0.0816442
3.618e-05,-0.0816904
3.619e-05,-0.0816042
3.621e-05,-0.0816657
3.622e-05,-0.0818227
3.624e-05,-0.0819058
3.626e-05,-0.0818412
3.627e-05,-0.0817627
3.629e-05,-0.0817504
3.630e-05,-0.0818043
3.632e-05,-0.0818689
3.634e-05,-0.0820213
3.635e-05,-0.0819135
3.637e-05,-0.0819335
3.638e-05,-0.081972
3.640e-05,-0.0819782
3.642e-05,-0.0820397
3.643e-05,-0.0820597
3.645e-05,-0.0820736
3.646e-05,-0.0821228
3.648e-05,-0.0821136
3.650e-05,-0.0821659
3.651e-05,-0.0821998
3.653e-05,-0.0822275
3.654e-05,-0.0823214
3.656e-05,-0.0822844
3.658e-05,-0.0823968
3.659e-05,-0.0823352
3.661e-05,-0.0823768
3.662e-05,-0.0824291
3.664e-05,-0.0824045
3.666e-05,-0.0824568
3.667e-05,-0.0825692
3.669e-05,-0.0824845
3.670e-05,-0.0825261
3.672e-05,-0.0824814
3.674e-05,-0.0825291
3.675e-05,-0.0825984
3.677e-05,-0.0826954
3.678e-05,-0.0826246
3.680e-05,-0.0826584
3.682e-05,-0.0826815
3.683e-05,-0.0827092
3.685e-05,-0.0827662
3.686e-05,-0.0827354
3.688e-05,-0.0826554
3.690e-05,-0.0829078
3.691e-05,-0.0829216
3.693e-05,-0.0828647
3.694e-05,-0.0827646
3.696e-05,-0.0828416
3.698e-05,-0.0829262
3.699e-05,-0.0830232
3.701e-05,-0.0830755
3.702e-05,-0.0830047
3.704e-05,-0.0830293
3.706e-05,-0.0830386
3.707e-05,-0.0831725
3.709e-05,-0.0832402
3.710e-05,-0.0830309
3.712e-05,-0.0831725
3.714e-05,-0.0831848
3.715e-05,-0.0832956
3.717e-05,-0.0833295
3.718e-05,-0.0833171
3.720e-05,-0.0833587
3.722e-05,-0.0833218
3.723e-05,-0.0834741
3.725e-05,-0.0834895
3.726e-05,-0.0834618
3.728e-05,-0.0834864
3.730e-05,-0.0835603
3.731e-05,-0.0835526
3.733e-05,-0.0836003
3.734e-05,-0.0836342
3.736e-05,-0.0835788
3.738e-05,-0.0837743
3.739e-05,-0.0836634
3.741e-05,-0.0837789
3.742e-05,-0.0838974
3.744e-05,-0.0839497
3.746e-05,-0.0837835
3.747e-05,-0.0838666
3.749e-05,-0.0839697
3.750e-05,-0.0841806
3.752e-05,-0.0840774
3.754e-05,-0.0839682
3.755e-05,-0.0840759
3.757e-05,-0.084196
3.758e-05,-0.0843114
3.760e-05,-0.084396
3.762e-05,-0.0842206
3.763e-05,-0.0842437
3.765e-05,-0.0841867
3.766e-05,-0.0845653
3.768e-05,-0.0844391
3.770e-05,-0.0846684
3.771e-05,-0.084493
3.773e-05,-0.0844991
3.774e-05,-0.084553
3.776e-05,-0.08475
3.778e-05,-0.08481
3.779e-05,-0.08483
3.781e-05,-0.0849239
3.782e-05,-0.0848239
3.784e-05,-0.0849101
3.786e-05,-0.0850117
3.787e-05,-0.0850455
3.789e-05,-0.0851317
3.790e-05,-0.0850347
3.792e-05,-0.0851871
3.794e-05,-0.0852594
3.795e-05,-0.0853395
3.797e-05,-0.0852487
3.798e-05,-0.0853379
3.800e-05,-0.0853626
3.802e-05,-0.0854226
3.803e-05,-0.085615
3.805e-05,-0.0855242
3.806e-05,-0.0856719
3.808e-05,-0.085478
3.810e-05,-0.0856873
3.811e-05,-0.0857289
3.813e-05,-0.0858474
3.814e-05,-0.085832
3.816e-05,-0.0857427
3.818e-05,-0.0858812
3.819e-05,-0.0859582
3.821e-05,-0.0860013
3.822e-05,-0.0861121
3.824e-05,-0.0861059
3.826e-05,-0.0861983
3.827e-05,-0.0861552
3.829e-05,-0.086386
3.830e-05,-0.0862491
3.832e-05,-0.0864384
3.834e-05,-0.0863583
3.835e-05,-0.0864291
3.837e-05,-0.0865384
3.838e-05,-0.0865369
3.840e-05,-0.0865276
3.842e-05,-0.0866615
3.843e-05,-0.0867293
3.845e-05,-0.0867754
3.846e-05,-0.0867523
3.848e-05,-0.0868832
3.850e-05,-0.0867416
3.851e-05,-0.0868847
3.853e-05,-0.086954
3.854e-05,-0.0869801
3.856e-05,-0.0870663
3.858e-05,-0.0871217
3.859e-05,-0.0870478
3.861e-05,-0.0871802
3.862e-05,-0.0871202
3.864e-05,-0.0872371
3.866e-05,-0.0873649
3.867e-05,-0.0874034
3.869e-05,-0.0874157
3.870e-05,-0.0874526
3.872e-05,-0.0876327
3.874e-05,-0.0875403
3.875e-05,-0.0875573
3.877e-05,-0.087565
3.878e-05,-0.0874988
3.880e-05,-0.0877496
3.882e-05,-0.0876989
3.883e-05,-0.0878374
3.885e-05,-0.0879343
3.886e-05,-0.0878528
3.888e-05,-0.087902
3.890e-05,-0.0879867
3.891e-05,-0.0881606
3.893e-05,-0.0880713
3.894e-05,-0.0882098
3.896e-05,-0.0880821
3.898e-05,-0.0882114
3.899e-05,-0.0882806
3.901e-05,-0.0884622
3.902e-05,-0.088356
3.904e-05,-0.088473
3.906e-05,-0.0884299
3.907e-05,-0.0885253
3.909e-05,-0.0886408
3.910e-05,-0.0885638
3.912e-05,-0.0886315
3.914e-05,-0.0887023
3.915e-05,-0.0887916
3.917e-05,-0.0888824
3.918e-05,-0.0888947
3.920e-05,-0.0889717
3.922e-05,-0.088944
3.923e-05,-0.0890948
3.925e-05,-0.0890455
3.926e-05,-0.089144
3.928e-05,-0.0892333
3.930e-05,-0.0893103
3.931e-05,-0.0893703
3.933e-05,-0.0893672
3.934e-05,-0.0893841
3.936e-05,-0.0894395
3.938e-05,-0.0896181
3.939e-05,-0.0895734
3.941e-05,-0.0896612
3.942e-05,-0.0896073
3.944e-05,-0.0897674
3.946e-05,-0.0897735
3.947e-05,-0.0898905
3.949e-05,-0.0898643
3.950e-05,-0.0898689
3.952e-05,-0.0899028
3.954e-05,-0.0899428
3.955e-05,-0.0902152
3.957e-05,-0.0903045
3.958e-05,-0.0901875
3.960e-05,-0.0902337
3.962e-05,-0.090266
3.963e-05,-0.0904553
3.965e-05,-0.0904692
3.966e-05,-0.0905892
3.968e-05,-0.0903691
3.970e-05,-0.0906569
3.971e-05,-0.0906231
3.973e-05,-0.0906169
3.974e-05,-0.0907493
3.976e-05,-0.09072
3.978e-05,-0.0908309
3.979e-05,-0.0908909
3.981e-05,-0.0909447
3.982e-05,-0.0909909
3.984e-05,-0.0910017
3.986e-05,-0.0910525
3.987e-05,-0.0910494
3.989e-05,-0.0912987
3.990e-05,-0.0911971
3.992e-05,-0.0912402
3.994e-05,-0.0912864
3.995e-05,-0.0912941
3.997e-05,-0.0914526
3.998e-05,-0.0914773
4.000e-05,-0.0915573
4.002e-05,-0.091585
4.003e-05,-0.0916173
4.005e-05,-0.0914819
4.006e-05,-0.0916004
4.008e-05,-0.0918235
4.010e-05,-0.0918882
4.011e-05,-0.0919236
4.013e-05,-0.0918851
4.014e-05,-0.0919251
4.016e-05,-0.0918913
4.018e-05,-0.0920421
4.019e-05,-0.092076
4.021e-05,-0.0921837
4.022e-05,-0.0922899
4.024e-05,-0.0921606
4.026e-05,-0.0922545
4.027e-05,-0.0922945
4.029e-05,-0.0922714
4.030e-05,-0.092296
4.032e-05,-0.0924069
4.034e-05,-0.0925331
4.035e-05,-0.0925561
4.037e-05,-0.0926623
4.038e-05,-0.0924853
4.040e-05,-0.0926916
4.042e-05,-0.0927747
4.043e-05,-0.0928162
4.045e-05,-0.0927254
4.046e-05,-0.0927039
4.048e-05,-0.0929625
4.050e-05,-0.0930117
4.051e-05,-0.0930533
4.053e-05,-0.0928147
4.054e-05,-0.0929548
4.056e-05,-0.093044
4.058e-05,-0.0931394
4.059e-05,-0.0932949
4.061e-05,-0.0932072
4.062e-05,-0.0932518
4.064e-05,-0.0932041
4.066e-05,-0.0933164
4.067e-05,-0.0933118
4.069e-05,-0.0933934
4.070e-05,-0.0934842
4.072e-05,-0.0934303
4.074e-05,-0.0934134
4.075e-05,-0.0935458
4.077e-05,-0.0936089
4.078e-05,-0.093478
4.080e-05,-0.0936689
4.082e-05,-0.093615
4.083e-05,-0.0937197
4.085e-05,-0.0937428
4.086e-05,-0.0937243
4.088e-05,-0.0938197
4.090e-05,-0.0936766
4.091e-05,-0.0938813
4.093e-05,-0.0939367
4.094e-05,-0.0939136
4.096e-05,-0.0939752
4.098e-05,-0.0939105
4.099e-05,-0.0940737
4.101e-05,-0.0939398
4.102e-05,-0.0941521
4.104e-05,-0.0940352
4.106e-05,-0.0941583
4.107e-05,-0.0942122
4.109e-05,-0.0942522
4.110e-05,-0.0941614
4.112e-05,-0.0941275
4.114e-05,-0.0943538
4.115e-05,-0.0944061
4.117e-05,-0.0945815
4.118e-05,-0.09444
4.120e-05,-0.0941583
4.122e-05,-0.0943999
4.123e-05,-0.094423
4.125e-05,-0.0945077
4.126e-05,-0.0944954
4.128e-05,-0.0945831
4.130e-05,-0.09446
4.131e-05,-0.0945554
4.133e-05,-0.0945138
4.134e-05,-0.094677
4.136e-05,-0.0947093
4.138e-05,-0.0945785
4.139e-05,-0.0947324
4.141e-05,-0.0945939
4.142e-05,-0.0946662
4.144e-05,-0.0946677
4.146e-05,-0.0947739
4.147e-05,-0.0947047
4.149e-05,-0.0947755
4.150e-05,-0.0948155
4.152e-05,-0.0947216
4.154e-05,-0.0947893
4.155e-05,-0.0947724
4.157e-05,-0.094837
4.158e-05,-0.0948847
4.160e-05,-0.0948355
4.162e-05,-0.0948878
4.163e-05,-0.0947416
4.165e-05,-0.0949232
4.166e-05,-0.094954
4.168e-05,-0.094954
4.170e-05,-0.0949124
4.171e-05,-0.0948755
4.173e-05,-0.0948278
4.174e-05,-0.094954
4.176e-05,-0.0948878
4.178e-05,-0.0949956
4.179e-05,-0.0951141
4.181e-05,-0.0950556
4.182e-05,-0.094994
4.184e-05,-0.0949509
4.186e-05,-0.0949386
4.187e-05,-0.0949894
4.189e-05,-0.095091
4.190e-05,-0.0950202
4.192e-05,-0.0949525
4.194e-05,-0.0949863
4.195e-05,-0.0947847
4.197e-05,-0.0950648
4.198e-05,-0.0950433
4.200e-05,-0.0949925
4.202e-05,-0.0949263
4.203e-05,-0.0948894
4.205e-05,-0.0950017
4.206e-05,-0.0948847
4.208e-05,-0.0950002
4.210e-05,-0.094874
4.211e-05,-0.0949217
4.213e-05,-0.0948555
4.214e-05,-0.094877
4.216e-05,-0.0950571
4.218e-05,-0.0948663
4.219e-05,-0.0947939
4.221e-05,-0.094737
4.222e-05,-0.0948647
4.224e-05,-0.0948863
4.226e-05,-0.0948493
4.227e-05,-0.0947139
4.229e-05,-0.0946877
4.230e-05,-0.0947601
4.232e-05,-0.0947493
4.234e-05,-0.0948078
4.235e-05,-0.0946539
4.237e-05,-0.0946293
4.238e-05,-0.0945538
4.240e-05,-0.0947262
4.242e-05,-0.0946154
4.243e-05,-0.0945877
4.245e-05,-0.0944815
4.246e-05,-0.0944584
4.248e-05,-0.0945815
4.250e-05,-0.0944892
4.251e-05,-0.0945769
4.253e-05,-0.0944984
4.254e-05,-0.0943799
4.256e-05,-0.0943538
4.258e-05,-0.0942876
4.259e-05,-0.0944199
4.261e-05,-0.0943184
4.262e-05,-0.0942799
4.264e-05,-0.0942137
4.266e-05,-0.0942076
4.267e-05,-0.0942368
4.269e-05,-0.0940521
4.270e-05,-0.0941691
4.272e-05,-0.0940183
4.274e-05,-0.0941152
4.275e-05,-0.093989
4.277e-05,-0.0940321
4.278e-05,-0.0939521
4.280e-05,-0.0938136
4.282e-05,-0.0939213
4.283e-05,-0.0938397
4.285e-05,-0.0937489
4.286e-05,-0.0937489
4.288e-05,-0.093852
4.290e-05,-0.0936797
4.291e-05,-0.093675
4.293e-05,-0.0935796
4.294e-05,-0.0934273
4.296e-05,-0.0935027
4.298e-05,-0.0935227
4.299e-05,-0.0936289
4.301e-05,-0.0934811
4.302e-05,-0.0933534
4.304e-05,-0.0932826
4.306e-05,-0.0933842
4.307e-05,-0.093338
4.309e-05,-0.0932333
4.310e-05,-0.093201
4.312e-05,-0.0930917
4.314e-05,-0.0931887
4.315e-05,-0.0930486
4.317e-05,-0.093044
4.318e-05,-0.0930763
4.320e-05,-0.0929194
4.322e-05,-0.0930502
4.323e-05,-0.092867
4.325e-05,-0.0929563
4.326e-05,-0.092727
4.328e-05,-0.0926746
4.330e-05,-0.0927778
4.331e-05,-0.0926346
4.333e-05,-0.0927224
4.334e-05,-0.09259
4.336e-05,-0.0926131
4.338e-05,-0.0924607
4.339e-05,-0.092433
4.341e-05,-0.092413
4.342e-05,-0.0923945
4.344e-05,-0.0923299
4.346e-05,-0.0922637
4.347e-05,-0.0923176
4.349e-05,-0.0923253
4.350e-05,-0.0922914
4.352e-05,-0.0920467
4.354e-05,-0.092019
4.355e-05,-0.0919544
4.357e-05,-0.0920559
4.358e-05,-0.0920421
4.360e-05,-0.0917943
4.362e-05,-0.0918266
4.363e-05,-0.091702
4.365e-05,-0.0916727
4.366e-05,-0.0916681
4.368e-05,-0.0916389
4.370e-05,-0.0915958
4.371e-05,-0.0913803
4.373e-05,-0.0914357
4.374e-05,-0.0913264
4.376e-05,-0.091348
4.378e-05,-0.0912987
4.379e-05,-0.0912972
4.381e-05,-0.091134
4.382e-05,-0.0910155
4.384e-05,-0.0910556
4.386e-05,-0.0909832
4.387e-05,-0.0909786
4.389e-05,-0.0908462
4.390e-05,-0.090777
4.392e-05,-0.0907801
4.394e-05,-0.0905908
4.395e-05,-0.0907847
4.397e-05,-0.0905754
4.398e-05,-0.0905384
4.400e-05,-0.0903984
4.402e-05,-0.0902845
4.403e-05,-0.0903122
4.405e-05,-0.0902491
4.406e-05,-0.0901752
4.408e-05,-0.0901998
4.410e-05,-0.0900505
4.411e-05,-0.0899767
4.413e-05,-0.0898689
4.414e-05,-0.0898243
4.416e-05,-0.0898089
4.418e-05,-0.0897273
4.419e-05,-0.089715
4.421e-05,-0.0895242
4.422e-05,-0.0896073
4.424e-05,-0.0894873
4.426e-05,-0.0893888
4.427e-05,-0.0893241
4.429e-05,-0.089161
4.430e-05,-0.0892287
4.432e-05,-0.089161
4.434e-05,-0.0891025
4.435e-05,-0.0890086
4.437e-05,-0.0888224
4.438e-05,-0.0889101
4.440e-05,-0.0887331
4.442e-05,-0.0887808
4.443e-05,-0.0887285
4.445e-05,-0.0885423
4.446e-05,-0.0885207
4.448e-05,-0.0884838
4.450e-05,-0.0884545
4.451e-05,-0.0884576
4.453e-05,-0.0881991
4.454e-05,-0.0881883
4.456e-05,-0.0881498
4.458e-05,-0.0881175
4.459e-05,-0.0881329
4.461e-05,-0.0880421
4.462e-05,-0.0879559
4.464e-05,-0.0877943
4.466e-05,-0.0877466
4.467e-05,-0.0878959
4.469e-05,-0.0877173
4.470e-05,-0.087765
4.472e-05,-0.0876281
4.474e-05,-0.0875373
4.475e-05,-0.0874942
4.477e-05,-0.0874418
4.478e-05,-0.0873587
4.480e-05,-0.0873295
4.482e-05,-0.0873187
4.483e-05,-0.0872248
4.485e-05,-0.0873079
4.486e-05,-0.0870848
4.488e-05,-0.0869293
4.490e-05,-0.0870047
4.491e-05,-0.0870386
4.493e-05,-0.0870294
4.494e-05,-0.0869339
4.496e-05,-0.0868385
4.498e-05,-0.0867508
4.499e-05,-0.0867185
4.501e-05,-0.0867062
4.502e-05,-0.0867015
4.504e-05,-0.0865984
4.506e-05,-0.0864876
4.507e-05,-0.0864091
4.509e-05,-0.0863045
4.510e-05,-0.0864507
4.512e-05,-0.0862983
4.514e-05,-0.0862937
4.515e-05,-0.0862121
4.517e-05,-0.0861813
4.518e-05,-0.0861013
4.520e-05,-0.0858935
4.522e-05,-0.0860336
4.523e-05,-0.0858535
4.525e-05,-0.0859659
4.526e-05,-0.0858535
4.528e-05,-0.0856365
4.530e-05,-0.0857212
4.531e-05,-0.0855426
4.533e-05,-0.0857412
4.534e-05,-0.0856458
4.536e-05,-0.0855934
4.538e-05,-0.0855349
4.539e-05,-0.0853826
4.541e-05,-0.0852441
4.542e-05,-0.0852625
4.544e-05,-0.0854364
4.546e-05,-0.085321
4.547e-05,-0.0852394
4.549e-05,-0.0850394
4.550e-05,-0.0850763
4.552e-05,-0.0851194
4.554e-05,-0.0850886
4.555e-05,-0.0850455
4.557e-05,-0.0848162
4.558e-05,-0.0847131
4.560e-05,-0.0847469
4.562e-05,-0.0848023
4.563e-05,-0.0847639
4.565e-05,-0.08471
4.566e-05,-0.08463
4.568e-05,-0.0844884
4.570e-05,-0.08463
4.571e-05,-0.0845792
4.573e-05,-0.084613
4.574e-05,-0.0844514
4.576e-05,-0.0843268
4.578e-05,-0.0843853
4.579e-05,-0.0843083
4.581e-05,-0.0842991
4.582e-05,-0.0842267
4.584e-05,-0.084236
4.586e-05,-0.0841683
4.587e-05,-0.0841098
4.589e-05,-0.0840267
4.590e-05,-0.084039
4.592e-05,-0.0839974
4.594e-05,-0.0839466
4.595e-05,-0.0840205
4.597e-05,-0.0838527
4.598e-05,-0.0838651
4.600e-05,-0.0838527
4.602e-05,-0.0837635
4.603e-05,-0.083802
4.605e-05,-0.0836388
4.606e-05,-0.0837666
4.608e-05,-0.083588
4.610e-05,-0.0836681
4.611e-05,-0.0836265
4.613e-05,-0.0834557
4.614e-05,-0.0835665
4.616e-05,-0.0835141
4.618e-05,-0.0834495
4.619e-05,-0.0834403
4.621e-05,-0.0834387
4.622e-05,-0.0833048
4.624e-05,-0.0832894
4.626e-05,-0.083251
4.627e-05,-0.0832156
4.629e-05,-0.0831648
4.630e-05,-0.0830524
4.632e-05,-0.0831432
4.634e-05,-0.0831186
4.635e-05,-0.0830909
4.637e-05,-0.0829124
4.638e-05,-0.0831078
4.640e-05,-0.0829585
4.642e-05,-0.0829324
4.643e-05,-0.0828216
4.645e-05,-0.0827646
4.646e-05,-0.0827739
4.648e-05,-0.0827846
4.650e-05,-0.0828385
4.651e-05,-0.0827539
4.653e-05,-0.0827092
4.654e-05,-0.0827015
4.656e-05,-0.0826107
4.658e-05,-0.0825846
4.659e-05,-0.0825076
4.661e-05,-0.0826738
4.662e-05,-0.0825553
4.664e-05,-0.0825076
4.666e-05,-0.0823783
4.667e-05,-0.0824414
4.669e-05,-0.0824476
4.670e-05,-0.0824137
4.672e-05,-0.0823629
4.674e-05,-0.0822767
4.675e-05,-0.0822583
4.677e-05,-0.0823706
4.678e-05,-0.082246
4.680e-05,-0.0821644
4.682e-05,-0.0822198
4.683e-05,-0.0821167
4.685e-05,-0.0821213
4.686e-05,-0.082209
4.688e-05,-0.0821059
4.690e-05,-0.082069
4.691e-05,-0.0819043
4.693e-05,-0.0820443
4.694e-05,-0.0820274
4.696e-05,-0.0819705
4.698e-05,-0.0820505
4.699e-05,-0.0818335
4.701e-05,-0.0819335
4.702e-05,-0.0816981
4.704e-05,-0.0818597
4.706e-05,-0.0818504
4.707e-05,-0.0817442
4.709e-05,-0.0818612
4.710e-05,-0.0816904
4.712e-05,-0.0817396
4.714e-05,-0.0816688
4.715e-05,-0.081658
4.717e-05,-0.0817119
4.718e-05,-0.0815842
4.720e-05,-0.0816226
4.722e-05,-0.0815164
4.723e-05,-0.0814857
4.725e-05,-0.081598
4.726e-05,-0.0816257
4.728e-05,-0.081498
4.730e-05,-0.0816088
4.731e-05,-0.0814472
4.733e-05,-0.0816242
4.734e-05,-0.0814072
4.736e-05,-0.0815072
4.738e-05,-0.0813533
4.739e-05,-0.0814179
4.741e-05,-0.081518
4.742e-05,-0.0814149
4.744e-05,-0.081401
4.746e-05,-0.0812748
4.747e-05,-0.0812994
4.749e-05,-0.0813287
4.750e-05,-0.0813533
4.752e-05,-0.0814964
4.754e-05,-0.0812856
4.755e-05,-0.0812979
4.757e-05,-0.0811071
4.758e-05,-0.0813795
4.760e-05,-0.0814333
4.762e-05,-0.0813041
4.763e-05,-0.0812517
4.765e-05,-0.081204
4.766e-05,-0.0812917
4.768e-05,-0.0812579
4.770e-05,-0.0812702
4.771e-05,-0.081244
4.773e-05,-0.081224
4.774e-05,-0.0812748
4.776e-05,-0.0811301
4.778e-05,-0.0813164
4.779e-05,-0.0812163
4.781e-05,-0.0813333
4.782e-05,-0.0812363
4.784e-05,-0.0811732
4.786e-05,-0.0812117
4.787e-05,-0.081067
4.789e-05,-0.0812517
4.790e-05,-0.081084
4.792e-05,-0.0812779
4.794e-05,-0.0810978
4.795e-05,-0.0811902
4.797e-05,-0.0811732
4.798e-05,-0.0811917
4.800e-05,-0.0810963
4.802e-05,-0.081087
4.803e-05,-0.0810978
4.805e-05,-0.0810717
4.806e-05,-0.0811994
4.808e-05,-0.0811301
4.810e-05,-0.0811086
4.811e-05,-0.0810393
4.813e-05,-0.0810347
4.814e-05,-0.0811917
4.816e-05,-0.081067
4.818e-05,-0.0811255
4.819e-05,-0.0809193
4.821e-05,-0.0809885
4.822e-05,-0.0809408
4.824e-05,-0.0811132
4.826e-05,-0.0811917
4.827e-05,-0.0809947
4.829e-05,-0.0809208
4.830e-05,-0.0809716
4.832e-05,-0.0810163
4.834e-05,-0.0809793
4.835e-05,-0.0809285
4.837e-05,-0.0809778
4.838e-05,-0.0809254
4.840e-05,-0.0809408
4.842e-05,-0.0808793
4.843e-05,-0.081027
4.845e-05,-0.0810316
4.846e-05,-0.0809732
4.848e-05,-0.0808731
4.850e-05,-0.0809116
4.851e-05,-0.0808762
4.853e-05,-0.0809916
4.854e-05,-0.0810039
4.856e-05,-0.0807962
4.858e-05,-0.0808962
4.859e-05,-0.0808885
4.861e-05,-0.0807992
4.862e-05,-0.08083
4.864e-05,-0.0807962
4.866e-05,-0.0809439
4.867e-05,-0.08077
4.869e-05,-0.0808639
4.870e-05,-0.0807438
4.872e-05,-0.0807777
4.874e-05,-0.0807931
4.875e-05,-0.0806977
4.877e-05,-0.0809101
4.878e-05,-0.0807577
4.880e-05,-0.080907
4.882e-05,-0.0806977
4.883e-05,-0.0807423
4.885e-05,-0.0807269
4.886e-05,-0.0807131
4.888e-05,-0.0808208
4.890e-05,-0.0806746
4.891e-05,-0.0807208
4.893e-05,-0.0807131
4.894e-05,-0.0806192
4.896e-05,-0.0807669
4.898e-05,-0.0806684
4.899e-05,-0.0806946
4.901e-05,-0.0806884
4.902e-05,-0.08065
4.904e-05,-0.080693
4.906e-05,-0.080693
4.907e-05,-0.08067
4.909e-05,-0.08071
4.910e-05,-0.080613
4.912e-05,-0.0806438
4.914e-05,-0.0805715
4.915e-05,-0.080613
4.917e-05,-0.0805561
4.918e-05,-0.0806361
4.920e-05,-0.0806576
4.922e-05,-0.0806022
4.923e-05,-0.0805114
4.925e-05,-0.0805668
4.926e-05,-0.0805761
4.928e-05,-0.0805268
4.930e-05,-0.0804668
4.931e-05,-0.0805099
4.933e-05,-0.0804899
4.934e-05,-0.0805668
4.936e-05,-0.080493
4.938e-05,-0.0804391
4.939e-05,-0.080473
4.941e-05,-0.0804837
4.942e-05,-0.0805961
4.944e-05,-0.0805084
4.946e-05,-0.0804129
4.947e-05,-0.0803791
4.949e-05,-0.0805145
4.950e-05,-0.0804499
4.952e-05,-0.0804514
4.954e-05,-0.0804606
4.955e-05,-0.0804283
4.957e-05,-0.0804253
4.958e-05,-0.0804253
4.960e-05,-0.080473
4.962e-05,-0.0803745
4.963e-05,-0.080453
4.965e-05,-0.0803252
4.966e-05,-0.0804499
4.968e-05,-0.0804206
4.970e-05,-0.080456
4.971e-05,-0.0803498
4.973e-05,-0.0804237
4.974e-05,-0.0804499
4.976e-05,-0.0804206
4.978e-05,-0.0803975
4.979e-05,-0.0802944
4.981e-05,-0.0803437
4.982e-05,-0.0804514
4.984e-05,-0.0804253
4.986e-05,-0.0804714
4.987e-05,-0.0803606
4.989e-05,-0.0803483
4.990e-05,-0.0804422
4.992e-05,-0.0803745
4.994e-05,-0.0804222
4.995e-05,-0.0802929
4.997e-05,-0.0804299
4.998e-05,-0.080316
5.000e-05,-0.0804776
5.002e-05,-0.0803899
5.003e-05,-0.0804376
5.005e-05,-0.0803529
5.006e-05,-0.0803868
5.008e-05,-0.0804314
5.010e-05,-0.0804083
5.011e-05,-0.0804945
5.013e-05,-0.0803098
5.014e-05,-0.0803683
5.016e-05,-0.0803698
5.018e-05,-0.0804176
5.019e-05,-0.0805576
5.021e-05,-0.0804114
5.022e-05,-0.080513
5.024e-05,-0.0803545
5.026e-05,-0.0805222
5.027e-05,-0.0804006
5.029e-05,-0.0804822
5.030e-05,-0.0804345
5.032e-05,-0.080396
5.034e-05,-0.0805053
5.035e-05,-0.0804514
5.037e-05,-0.0806115
5.038e-05,-0.080476
5.040e-05,-0.0804868
5.042e-05,-0.0804668
5.043e-05,-0.0805299
5.045e-05,-0.0806299
5.046e-05,-0.080473
5.048e-05,-0.0806238
5.050e-05,-0.0804653
5.051e-05,-0.0805869
5.053e-05,-0.0805638
5.054e-05,-0.0805268
5.056e-05,-0.0806176
5.058e-05,-0.0805545
5.059e-05,-0.0806361
5.061e-05,-0.0805053
5.062e-05,-0.0806346
5.064e-05,-0.0806315
5.066e-05,-0.0805314
5.067e-05,-0.0805853
5.069e-05,-0.0805838
5.070e-05,-0.0805453
5.072e-05,-0.0806623
5.074e-05,-0.0805761
5.075e-05,-0.0805453
5.077e-05,-0.0804822
5.078e-05,-0.0806238
5.080e-05,-0.0805715
5.082e-05,-0.0805022
5.083e-05,-0.0805207
5.085e-05,-0.0805945
5.086e-05,-0.080473
5.088e-05,-0.0805915
5.090e-05,-0.0804483
5.091e-05,-0.0807438
5.093e-05,-0.080513
5.094e-05,-0.0805976
5.096e-05,-0.080533
5.098e-05,-0.0804483
5.099e-05,-0.0805299
5.101e-05,-0.080493
5.102e-05,-0.0805191
5.104e-05,-0.0805715
5.106e-05,-0.0805222
5.107e-05,-0.0804914
5.109e-05,-0.0803514
5.110e-05,-0.0805145
5.112e-05,-0.0804899
5.114e-05,-0.0805792
5.115e-05,-0.0804268
5.117e-05,-0.0803606
5.118e-05,-0.0803083
5.120e-05,-0.0804991
5.122e-05,-0.0803729
5.123e-05,-0.0804499
5.125e-05,-0.080493
5.126e-05,-0.0803852
5.128e-05,-0.0803698
5.130e-05,-0.080493
5.131e-05,-0.0804237
5.133e-05,-0.0802929
5.134e-05,-0.0802329
5.136e-05,-0.080376
5.138e-05,-0.0804037
5.139e-05,-0.0805114
5.141e-05,-0.0803606
5.142e-05,-0.0803468
5.144e-05,-0.0803852
5.146e-05,-0.0804176
5.147e-05,-0.080553
5.149e-05,-0.0804314
5.150e-05,-0.0804068
5.152e-05,-0.0803206
5.154e-05,-0.0803052
5.155e-05,-0.0803991
5.157e-05,-0.0804314
5.158e-05,-0.0804099
5.160e-05,-0.0804099
5.162e-05,-0.0803822
5.163e-05,-0.0803729
5.165e-05,-0.0803221
5.166e-05,-0.0804991
5.168e-05,-0.0803652
5.170e-05,-0.080436
5.171e-05,-0.0803852
5.173e-05,-0.0804714
5.174e-05,-0.0804129
5.176e-05,-0.0804437
5.178e-05,-0.0803067
5.179e-05,-0.0804253
5.181e-05,-0.0804437
5.182e-05,-0.0805576
5.184e-05,-0.0804114
5.186e-05,-0.0806069
5.187e-05,-0.0804268
5.189e-05,-0.0803698
5.190e-05,-0.0803975
5.192e-05,-0.080456
5.194e-05,-0.0804653
5.195e-05,-0.0805238
5.197e-05,-0.0805853
5.198e-05,-0.0805422
5.200e-05,-0.0804406
5.202e-05,-0.0804283
5.203e-05,-0.0804545
5.205e-05,-0.080593
5.206e-05,-0.0805253
5.208e-05,-0.080633
5.210e-05,-0.080573
5.211e-05,-0.0805345
5.213e-05,-0.0805591
5.214e-05,-0.080593
5.216e-05,-0.0806484
5.218e-05,-0.080573
5.219e-05,-0.0806069
5.221e-05,-0.0804622
5.222e-05,-0.080493
5.224e-05,-0.0805238
5.226e-05,-0.0804514
5.227e-05,-0.0805515
5.229e-05,-0.0805268
5.230e-05,-0.0805161
5.232e-05,-0.0805176
5.234e-05,-0.0806223
5.235e-05,-0.0806223
5.237e-05,-0.0806284
5.238e-05,-0.0804376
5.240e-05,-0.0804114
5.242e-05,-0.0805792
5.243e-05,-0.0805222
5.245e-05,-0.0806115
5.246e-05,-0.0804837
5.248e-05,-0.0805268
5.250e-05,-0.0804591
5.251e-05,-0.080533
5.253e-05,-0.0804668
5.254e-05,-0.0804422
5.256e-05,-0.0806299
5.258e-05,-0.0804991
5.259e-05,-0.0805022
5.261e-05,-0.0804714
5.262e-05,-0.0805576
5.264e-05,-0.0805114
5.266e-05,-0.0804453
5.267e-05,-0.0805638
5.269e-05,-0.0804068
5.270e-05,-0.0805607
5.272e-05,-0.0805345
5.274e-05,-0.0805084
5.275e-05,-0.0805268
5.277e-05,-0.0804914
5.278e-05,-0.0805114
5.280e-05,-0.0805899
5.282e-05,-0.0805438
5.283e-05,-0.080436
5.285e-05,-0.0805407
5.286e-05,-0.0805438
5.288e-05,-0.0806515
5.290e-05,-0.0805361
5.291e-05,-0.0805992
5.293e-05,-0.0805438
5.294e-05,-0.0805438
5.296e-05,-0.0806992
5.298e-05,-0.0805899
5.299e-05,-0.0807731
5.301e-05,-0.0804914
5.302e-05,-0.0806238
5.304e-05,-0.080633
5.306e-05,-0.0806915
5.307e-05,-0.0807192
5.309e-05,-0.0806546
5.310e-05,-0.0806715
5.312e-05,-0.0806176
5.314e-05,-0.0808146
5.315e-05,-0.08077
5.317e-05,-0.0807161
5.318e-05,-0.0807238
5.320e-05,-0.0806192
5.322e-05,-0.0808777
5.323e-05,-0.0806653
5.325e-05,-0.0808146
5.326e-05,-0.0807823
5.328e-05,-0.0808393
5.330e-05,-0.0807777
5.331e-05,-0.0808054
5.333e-05,-0.0808516
5.334e-05,-0.0807131
5.336e-05,-0.0807685
5.338e-05,-0.0809193
5.339e-05,-0.0808639
5.341e-05,-0.0808731
5.342e-05,-0.0807038
5.344e-05,-0.08085
5.346e-05,-0.0808162
5.347e-05,-0.0808346
5.349e-05,-0.0807685
5.350e-05,-0.08087
5.352e-05,-0.0809301
5.354e-05,-0.080987
5.355e-05,-0.0808808
5.357e-05,-0.0808023
5.358e-05,-0.0808731
5.360e-05,-0.0808854
5.362e-05,-0.081067
5.363e-05,-0.0808793
5.365e-05,-0.080947
5.366e-05,-0.0807623
5.368e-05,-0.0808069
5.370e-05,-0.0810039
5.371e-05,-0.0809685
5.373e-05,-0.0809993
5.374e-05,-0.08085
5.376e-05,-0.0809916
5.378e-05,-0.0809085
5.379e-05,-0.0808531
5.381e-05,-0.0810239
5.382e-05,-0.0808777
5.384e-05,-0.0809685
5.386e-05,-0.0808423
5.387e-05,-0.0808762
5.389e-05,-0.0808562
5.390e-05,-0.080907
5.392e-05,-0.0807054
5.394e-05,-0.0809762
5.395e-05,-0.0808839
5.397e-05,-0.0809131
5.398e-05,-0.0808408
5.400e-05,-0.0808177
5.402e-05,-0.0807423
5.403e-05,-0.0808285
5.405e-05,-0.0808439
5.406e-05,-0.0806792
5.408e-05,-0.0807223
5.410e-05,-0.0807885
5.411e-05,-0.0806915
5.413e-05,-0.0808239
5.414e-05,-0.0806438
5.416e-05,-0.0807854
5.418e-05,-0.0806992
5.419e-05,-0.0806515
5.421e-05,-0.0807192
5.422e-05,-0.0805915
5.424e-05,-0.0807254
5.426e-05,-0.0806869
5.427e-05,-0.0807007
5.429e-05,-0.0806099
5.430e-05,-0.0805468
5.432e-05,-0.0806992
5.434e-05,-0.080633
5.435e-05,-0.080653
5.437e-05,-0.0805884
5.438e-05,-0.0806361
5.440e-05,-0.0805561
5.442e-05,-0.0805945
5.443e-05,-0.0806176
5.445e-05,-0.0804899
5.446e-05,-0.0807592
5.448e-05,-0.0806022
5.450e-05,-0.080633
5.451e-05,-0.080553
5.453e-05,-0.0805453
5.454e-05,-0.0804945
5.456e-05,-0.0806546
5.458e-05,-0.080513
5.459e-05,-0.0805838
5.461e-05,-0.0803945
5.462e-05,-0.080553
5.464e-05,-0.0803652
5.466e-05,-0.0805622
5.467e-05,-0.0805361
5.469e-05,-0.080456
5.470e-05,-0.0803914
5.472e-05,-0.0804237
5.474e-05,-0.0803637
5.475e-05,-0.0806238
5.477e-05,-0.0805099
5.478e-05,-0.0805299
5.480e-05,-0.0803268
5.482e-05,-0.0803498
5.483e-05,-0.080456
5.485e-05,-0.0804868
5.486e-05,-0.0804114
5.488e-05,-0.0803791
5.490e-05,-0.0804668
5.491e-05,-0.0804022
5.493e-05,-0.0803191
5.494e-05,-0.0804668
5.496e-05,-0.0804222
5.498e-05,-0.080436
5.499e-05,-0.0804222
5.501e-05,-0.0804222
5.502e-05,-0.0804776
5.504e-05,-0.0804406
5.506e-05,-0.0804145
5.507e-05,-0.0803852
5.509e-05,-0.0804037
5.510e-05,-0.0803483
5.512e-05,-0.0804591
5.514e-05,-0.0804283
5.515e-05,-0.0805207
5.517e-05,-0.0802867
5.518e-05,-0.0804745
5.520e-05,-0.0804037
5.522e-05,-0.0804699
5.523e-05,-0.0802883
5.525e-05,-0.0803329
5.526e-05,-0.0803591
5.528e-05,-0.0804591
5.530e-05,-0.0804022
5.531e-05,-0.0803591
5.533e-05,-0.0803683
5.534e-05,-0.0805053
5.536e-05,-0.0803899
5.538e-05,-0.0804006
5.539e-05,-0.0803498
5.541e-05,-0.0803852
5.542e-05,-0.0803175
5.544e-05,-0.0804884
5.546e-05,-0.0804099
5.547e-05,-0.0804083
5.549e-05,-0.0803668
5.550e-05,-0.0804899
5.552e-05,-0.080476
5.554e-05,-0.0804837
5.555e-05,-0.0804499
5.557e-05,-0.0803822
5.558e-05,-0.0804899
5.560e-05,-0.0805668
5.562e-05,-0.080493
5.563e-05,-0.080396
5.565e-05,-0.0804299
5.566e-05,-0.0804591
5.568e-05,-0.0804914
5.570e-05,-0.0806084
5.571e-05,-0.0804899
5.573e-05,-0.0804329
5.574e-05,-0.0804837
5.576e-05,-0.0804884
5.578e-05,-0.0805576
5.579e-05,-0.0804129
5.581e-05,-0.0805484
5.582e-05,-0.0804945
5.584e-05,-0.0806546
5.586e-05,-0.0805391
5.587e-05,-0.0805361
5.589e-05,-0.0805915
5.590e-05,-0.0804283
5.592e-05,-0.0805484
5.594e-05,-0.0805976
5.595e-05,-0.0806546
5.597e-05,-0.080553
5.598e-05,-0.0805699
5.600e-05,-0.0806623
5.602e-05,-0.0806069
5.603e-05,-0.0807346
5.605e-05,-0.0804822
5.606e-05,-0.0806546
5.608e-05,-0.0805822
5.610e-05,-0.0806854
5.611e-05,-0.080633
5.613e-05,-0.0805776
5.614e-05,-0.0806684
5.616e-05,-0.08065
5.618e-05,-0.0807515
5.619e-05,-0.0806823
5.621e-05,-0.0805638
5.622e-05,-0.0806253
5.624e-05,-0.08069
5.626e-05,-0.080693
5.627e-05,-0.08071
5.629e-05,-0.0806392
5.630e-05,-0.0806253
5.632e-05,-0.0806192
5.634e-05,-0.0806192
5.635e-05,-0.0806438
5.637e-05,-0.0806592
5.638e-05,-0.080673
5.640e-05,-0.0805484
5.642e-05,-0.0806453
5.643e-05,-0.0806346
5.645e-05,-0.0806084
5.646e-05,-0.0808085
5.648e-05,-0.0805484
5.650e-05,-0.0806484
5.651e-05,-0.0806146
5.653e-05,-0.0806346
5.654e-05,-0.08069
5.656e-05,-0.0806192
5.658e-05,-0.0807023
5.659e-05,-0.0805961
5.661e-05,-0.0806161
5.662e-05,-0.0805668
5.664e-05,-0.0806038
5.666e-05,-0.0807223
5.667e-05,-0.0806069
5.669e-05,-0.0806407
5.670e-05,-0.0805222
5.672e-05,-0.0805238
5.674e-05,-0.0805638
5.675e-05,-0.0807669
5.677e-05,-0.0806161
5.678e-05,-0.0805976
5.680e-05,-0.0804807
5.682e-05,-0.0804514
5.683e-05,-0.08067
5.685e-05,-0.0806346
5.686e-05,-0.0806038
5.688e-05,-0.0803375
5.690e-05,-0.0804237
5.691e-05,-0.0804945
5.693e-05,-0.0806253
5.694e-05,-0.0806946
5.696e-05,-0.0805022
5.698e-05,-0.0804914
5.699e-05,-0.0803868
5.701e-05,-0.0805622
5.702e-05,-0.0807208
5.704e-05,-0.0805407
5.706e-05,-0.0804791
5.707e-05,-0.0804222
5.709e-05,-0.0805222
5.710e-05,-0.0805576
5.712e-05,-0.0806561
5.714e-05,-0.0805838
5.715e-05,-0.0804653
5.717e-05,-0.0805484
5.718e-05,-0.0805022
5.720e-05,-0.0805191
5.722e-05,-0.0805761
5.723e-05,-0.080493
5.725e-05,-0.0805145
5.726e-05,-0.0805037
5.728e-05,-0.080613
5.730e-05,-0.0806761
5.731e-05,-0.080573
5.733e-05,-0.080573
5.734e-05,-0.080533
5.736e-05,-0.0805176
5.738e-05,-0.0805284
5.739e-05,-0.0805438
5.741e-05,-0.0806761
5.742e-05,-0.0804606
5.744e-05,-0.0804653
5.746e-05,-0.0805638
5.747e-05,-0.0804745
5.749e-05,-0.0805638
5.750e-05,-0.080476
5.752e-05,-0.0804483
5.754e-05,-0.080396
5.755e-05,-0.0804991
5.757e-05,-0.0805268
5.758e-05,-0.0804868
5.760e-05,-0.0805284
5.762e-05,-0.0803822
5.763e-05,-0.0805638
5.765e-05,-0.0805068
5.766e-05,-0.0805007
5.768e-05,-0.0804206
5.770e-05,-0.0804668
5.771e-05,-0.0805745
5.773e-05,-0.0804776
5.774e-05,-0.0805037
5.776e-05,-0.0803391
5.778e-05,-0.080453
5.779e-05,-0.080396

